# XDI/1.0  GSE/1.0
# Beamline.name:  13-ID-E, GSECARS
# Monochromator.name:  Si(111), LN2 Cooled
# Monochromator.dspacing:  3.13477
# Facility.name: APS
# Facility.xray_source: 3.6 cm undulator
# Detectors.i0:  20cm ion chamber, He
# Detectors.ifluor:  Si SDD Vortex ME-4, 4 elements
# Detectors.ifluor_electronics:  Quantum Xspress3 3.1.10
# Column.1: energy eV
# Column.2: mufluor
# Column.3: i0
# Column.4: ifluor (corrected for deadtime)
# Column.5: ifluor_raw (not corrected)
# Column.7: itrans 
# Column.8: irefer 
# Scan.start_time: 2015-03-26 13:01:58
# ///
# summed fe_ka fluorescence data from FeXAFS_REL_Map1_spot4_V_Fe_Ca_Sr.002
# Dead-time correction applied
#---------------------------------
#        energy         mufluor         i0          fluor_dtc        fluor_raw        counttime        itrans         irefer 
      7012.005      0.03301687     241406.000       7970.46936        7966.00          1.000         16.000        -88.000
      7017.004      0.03570610     283788.000      10132.96231       10126.00          1.000         16.000        -86.000
      7022.000      0.03838438     286576.000      11000.04304       10992.00          1.000         16.000        -85.000
      7026.998      0.04091087     286696.000      11728.98200       11720.00          1.000         16.000        -87.000
      7032.009      0.04387182     286449.000      12567.03877       12557.00          1.000         16.000        -87.000
      7037.015      0.04780734     286500.000      13696.80419       13685.00          1.000         15.000        -87.000
      7041.996      0.05307852     284691.000      15110.97610       15097.00          1.000         16.000        -96.000
      7047.004      0.05755787     281484.000      16201.62036       16186.00          1.000         16.000        -97.000
      7052.001      0.06439323     281226.000      18109.05050       18090.00          1.000         16.000        -99.000
      7057.004      0.07179513     280326.000      20126.04062       20103.00          1.000         15.000        -99.000
      7062.005      0.07938605     279740.000      22207.45382       22180.00          1.000         16.000        -84.000
      7067.008      0.08882808     276235.000      24537.42588       24504.00          1.000         16.000        -77.000
      7072.008      0.10071138     276549.000      27851.63130       27810.00          1.000         15.000        -78.000
      7077.008      0.11372757     278420.000      31664.03096       31611.00          1.000         16.000        -77.000
      7082.000      0.13242246     277695.000      36773.05501       36703.00          1.000         16.000        -89.000
      7087.003      0.15507929     277971.000      43107.54473       43013.00          1.000         16.000        -88.000
      7092.006      0.18856168     275999.000      52042.83479       51909.00          1.000         16.000        -88.000
      7097.001      0.23305098     276284.000      64388.25731       64187.00          1.000         16.000        -89.000
      7101.996      0.30166392     277625.000      83749.44654       83413.00          1.000         16.000        -91.000
      7102.199      0.30543819     275912.000      84274.06301       83932.00          1.000         16.000        -90.000
      7102.404      0.31156174     275969.000      85981.38079       85625.00          1.000         16.000        -88.000
      7102.600      0.31393468     276049.000      86661.35496       86300.00          1.000         17.000        -87.000
      7102.795      0.31914845     276198.000      88148.16452       87775.00          1.000         16.000        -87.000
      7102.998      0.32337643     275948.000      89235.07865       88852.00          1.000         16.000        -88.000
      7103.210      0.32689563     275049.000      89912.31503       89526.00          1.000         16.000        -89.000
      7103.405      0.33017902     274908.000      90768.85493       90375.00          1.000         16.000        -87.000
      7103.604      0.33566783     274855.000      92259.98059       91852.00          1.000         15.000        -88.000
      7103.807      0.33909633     274997.000      93250.47367       92832.00          1.000         16.000        -89.000
      7104.002      0.34344578     274747.000      94360.69773       93935.00          1.000         16.000        -89.000
      7104.198      0.34981318     274667.000      96082.13652       95641.00          1.000         16.000        -89.000
      7104.401      0.35495355     274481.000      97428.00643       96973.00          1.000         16.000        -87.000
      7104.613      0.36079072     274543.000      99052.56759       98584.00          1.000         16.000        -88.000
      7104.805      0.36372600     274520.000      99850.06122       99376.00          1.000         16.000        -90.000
      7105.011      0.37073972     274406.000     101733.20253      101238.00          1.000         16.000        -89.000
      7105.200      0.37772787     274276.000     103601.68796      103092.00          1.000         16.000        -90.000
      7105.402      0.38327876     274431.000     105183.57448      104657.00          1.000         16.000        -91.000
      7105.605      0.39057212     274266.000     107120.65363      106577.00          1.000         16.000        -91.000
      7105.804      0.39507345     274225.000     108339.01567      107785.00          1.000         15.000        -92.000
      7106.000      0.39945006     274301.000     109569.54998      108999.00          1.000         15.000        -92.000
      7106.196      0.40630502     274398.000     111489.28457      110898.00          1.000         16.000        -79.000
      7106.398      0.41158051     274106.000     112816.68791      112213.00          1.000         16.000        -80.000
      7106.607      0.41568491     274116.000     113945.88450      113331.00          1.000         16.000        -79.000
      7106.803      0.42569097     273983.000     116632.08826      115986.00          1.000         16.000        -79.000
      7106.996      0.43026262     274124.000     117945.30932      117283.00          1.000         16.000        -80.000
      7107.215      0.43902897     274042.000     120312.37689      119629.00          1.000         16.000        -79.000
      7107.391      0.44358221     274058.000     121567.25401      120870.00          1.000         16.000        -79.000
      7107.613      0.45329051     273952.000     124179.84215      123451.00          1.000         16.000        -79.000
      7107.803      0.46295253     273974.000     126836.95533      126076.00          1.000         16.000        -80.000
      7108.008      0.47330158     273773.000     129577.19272      128789.00          1.000         16.000        -80.000
      7108.195      0.48130152     273879.000     131818.37827      131001.00          1.000         16.000        -80.000
      7108.404      0.49186402     273945.000     134743.68969      133887.00          1.000         16.000        -80.000
      7108.606      0.50147845     273866.000     137337.89603      136446.00          1.000         16.000        -79.000
      7108.805      0.51710519     273718.000     141540.99812      140597.00          1.000         16.000        -79.000
      7108.995      0.53015718     273709.000     145108.79145      144117.00          1.000         16.000        -80.000
      7109.201      0.54568002     273457.000     149220.02169      148170.00          1.000         16.000        -79.000
      7109.403      0.56060213     273549.000     153352.15070      152248.00          1.000         16.000        -79.000
      7109.603      0.57885602     273451.000     158288.75715      157112.00          1.000         16.000        -79.000
      7109.809      0.59378583     273399.000     162340.45139      161106.00          1.000         15.000        -80.000
      7110.008      0.61646232     273431.000     168559.90778      167233.00          1.000         16.000        -80.000
      7110.198      0.64442933     273499.000     176250.77684      174799.00          1.000         15.000        -79.000
      7110.400      0.67848576     273296.000     185427.44493      183822.00          1.000         16.000        -79.000
      7110.606      0.71705703     273159.000     195870.58085      194080.00          1.000         15.000        -79.000
      7110.799      0.75987982     273315.000     207686.55273      205677.00          1.000         16.000        -79.000
      7111.002      0.82445794     273342.000     225358.98205      222997.00          1.000         15.000        -79.000
      7111.208      0.90442076     273347.000     247220.70156      244389.00          1.000         16.000        -79.000
      7111.411      1.00927690     273296.000     275831.34027      272314.00          1.000         16.000        -78.000
      7111.604      1.13151948     273255.000     309193.35517      304761.00          1.000         16.000        -78.000
      7111.790      1.26838996     273057.000     346342.75660      340807.00          1.000         16.000        -78.000
      7112.003      1.39705531     272811.000     381132.05631      374410.00          1.000         16.000        -79.000
      7112.205      1.50004949     272849.000     409287.00440      401554.00          1.000         16.000        -79.000
      7112.408      1.58016151     273138.000     431602.15345      423002.00          1.000         16.000        -79.000
      7112.604      1.63783251     273015.000     447152.84374      437915.00          1.000         16.000        -79.000
      7112.801      1.70252493     272906.000     464629.26727      454665.00          1.000         16.000        -79.000
      7113.000      1.79308828     273038.000     489581.23680      478526.00          1.000         16.000        -80.000
      7113.210      1.88908214     272853.000     515441.72841      503182.00          1.000         16.000        -80.000
      7113.403      1.97154137     272901.000     538035.61082      524669.00          1.000         16.000        -79.000
      7113.605      2.00263886     272853.000     546426.02072      532652.00          1.000         16.000        -79.000
      7113.802      1.98616053     272753.000     541731.24207      528164.00          1.000         16.000        -78.000
      7113.995      1.91415803     272481.000     521571.69305      508982.00          1.000         16.000        -78.000
      7114.204      1.82800871     272615.000     498342.59390      486848.00          1.000         16.000        -77.000
      7114.407      1.75332059     272762.000     478239.23130      467667.00          1.000         16.000        -78.000
      7114.610      1.70769375     272676.000     465647.10114      455627.00          1.000         16.000        -78.000
      7114.810      1.67994989     272807.000     458302.09006      448571.00          1.000         16.000        -79.000
      7115.000      1.67510513     272761.000     456903.35141      447239.00          1.000         16.000        -78.000
      7115.206      1.68404951     272557.000     458999.48231      449251.00          1.000         16.000        -78.000
      7115.406      1.70009587     272263.000     462873.20080      452954.00          1.000         16.000        -78.000
      7115.602      1.72576141     272311.000     469943.81505      459707.00          1.000         16.000        -77.000
      7115.815      1.75456103     272370.000     477889.78827      467312.00          1.000         16.000        -77.000
      7116.011      1.77549285     272526.000     483867.96541      472997.00          1.000         17.000        -75.000
      7116.211      1.81846279     272703.000     495900.25832      484500.00          1.000         16.000        -76.000
      7116.404      1.85931930     272221.000     506145.75984      494284.00          1.000         16.000        -77.000
      7116.611      1.89802962     272365.000     516956.83618      504545.00          1.000         16.000        -78.000
      7116.817      1.92962494     272347.000     525527.56433      512724.00          1.000         16.000        -78.000
      7117.007      1.97359864     272582.000     537967.46395      524556.00          1.000         16.000        -77.000
      7117.200      2.01596499     272571.000     549493.59438      535490.00          1.000         17.000        -77.000
      7117.410      2.05915448     272365.000     560841.61085      546271.00          1.000         16.000        -78.000
      7117.610      2.10061381     271995.000     571356.45223      556206.00          1.000         16.000        -78.000
      7117.806      2.16058857     271917.000     587500.76293      571462.00          1.000         17.000        -77.000
      7118.006      2.23426963     271824.000     607328.10688      590216.00          1.000         16.000        -77.000
      7118.206      2.31791573     271910.000     630264.46529      611830.00          1.000         16.000        -77.000
      7118.406      2.41317085     271992.000     656363.16629      636377.00          1.000         16.000        -76.000
      7118.596      2.52268030     272171.000     686600.41946      664742.00          1.000         16.000        -76.000
      7118.809      2.63862047     271820.000     717229.81721      693325.00          1.000         16.000        -76.000
      7119.015      2.77021455     271520.000     752168.65563      725876.00          1.000         16.000        -76.000
      7119.212      2.92649632     271821.000     795483.15462      766098.00          1.000         16.000        -76.000
      7119.412      3.08896436     271814.000     839623.75859      806806.00          1.000         16.000        -76.000
      7119.612      3.27961437     271904.000     891740.26410      854696.00          1.000         16.000        -75.000
      7119.808      3.49499799     271645.000     949398.72747      907401.00          1.000         16.000        -75.000
      7120.002      3.71493967     271468.000    1008487.24171      961033.00          1.000         16.000        -76.000
      7120.202      3.96403566     271049.000    1074447.90154     1020501.00          1.000         16.000        -76.000
      7120.395      4.23209132     271067.000    1147180.29724     1085569.00          1.000         16.000        -76.000
      7120.612      4.52191026     271120.000    1225980.30950     1155579.00          1.000         16.000        -75.000
      7120.808      4.81415313     271319.000    1306171.21287     1226219.00          1.000         17.000        -76.000
      7121.015      5.13870428     271273.000    1393991.72619     1302756.00          1.000         16.000        -77.000
      7121.202      5.46070592     271273.000    1481342.07580     1378107.00          1.000         16.000        -76.000
      7121.405      5.79082507     271290.000    1570992.93369     1454715.00          1.000         16.000        -76.000
      7121.602      6.12938209     271261.000    1662662.31358     1531998.00          1.000         16.000        -76.000
      7121.805      6.43437910     271217.000    1745112.99522     1601091.00          1.000         16.000        -75.000
      7122.005      6.77483501     271418.000    1838812.16699     1678449.00          1.000         16.000        -77.000
      7122.209      7.07028670     271330.000    1918380.89047     1743871.00          1.000         16.000        -77.000
      7122.399      7.34147386     270894.000    1988761.21828     1800690.00          1.000         17.000        -77.000
      7122.602      7.60673196     270679.000    2058982.59849     1857210.00          1.000         16.000        -76.000
      7122.812      7.83329424     270736.000    2120754.74922     1906547.00          1.000         16.000        -77.000
      7123.003      8.06446103     270741.000    2183380.24252     1955865.00          1.000         16.000        -76.000
      7123.203      8.27159962     270848.000    2240346.21170     2000305.00          1.000         16.000        -76.000
      7123.410      8.47905082     270601.000    2294439.63104     2042772.00          1.000         16.000        -78.000
      7123.603      8.66643706     270739.000    2346342.50092     2082902.00          1.000         17.000        -78.000
      7123.807      8.82327627     270262.000    2384596.29011     2111946.00          1.000         17.000        -78.000
      7124.017      8.99646243     270366.000    2432337.55930     2148326.00          1.000         16.000        -78.000
      7124.210      9.17118817     270213.000    2478174.26809     2183007.00          1.000         17.000        -79.000
      7124.411      9.34101582     270060.000    2522634.73193     2216586.00          1.000         17.000        -78.000
      7124.598      9.50847024     269990.000    2567191.87951     2250058.00          1.000         16.000        -78.000
      7124.814      9.67538540     270010.000    2612450.81100     2283772.00          1.000         17.000        -77.000
      7125.015      9.82769712     269779.000    2651306.29964     2312355.00          1.000         17.000        -81.000
      7125.202      9.96756450     269948.000    2690724.10073     2341332.00          1.000         17.000        -89.000
      7125.415     10.13645912     270146.000    2738323.88563     2376334.00          1.000         17.000        -90.000
      7125.599     10.26468528     270011.000    2771577.93689     2400039.00          1.000         16.000        -90.000
      7125.799     10.41847037     269883.000    2811768.03689     2429696.00          1.000         17.000        -88.000
      7126.003     10.55313334     269931.000    2848617.83352     2455845.00          1.000         16.000        -88.000
      7126.213     10.66504000     269729.000    2876670.57333     2475941.00          1.000         16.000        -88.000
      7126.407     10.79574238     269510.000    2909560.52772     2499620.00          1.000         17.000        -87.000
      7126.601     10.88923310     269103.000    2930325.29342     2513910.00          1.000         16.000        -88.000
      7126.808     10.98483201     269183.000    2956930.03455     2533131.00          1.000         16.000        -87.000
      7127.011     11.08678614     268993.000    2982267.86367     2550913.00          1.000         17.000        -87.000
      7127.202     11.14877013     269340.000    3002809.74689     2564739.00          1.000         17.000        -88.000
      7127.402     11.23571827     269304.000    3025823.87242     2581339.00          1.000         17.000        -86.000
      7127.606     11.32144559     269139.000    3047042.54465     2596470.00          1.000         17.000        -86.000
      7127.806     11.36959774     268742.000    3055488.43473     2601935.00          1.000         16.000        -87.000
      7128.000     11.43320062     268675.000    3071815.17518     2613816.00          1.000         17.000        -87.000
      7128.207     11.45648582     269000.000    3081794.68433     2620093.00          1.000         16.000        -86.000
      7128.404     11.50663694     269149.000    3096999.82587     2630355.00          1.000         16.000        -87.000
      7128.608     11.53690239     268992.000    3103334.44604     2634972.00          1.000         17.000        -87.000
      7128.812     11.56378608     269027.000    3110970.67566     2639787.00          1.000         16.000        -87.000
      7129.006     11.59402099     268869.000    3117272.82752     2644668.00          1.000         17.000        -86.000
      7129.206     11.60120527     268531.000    3115283.25001     2642790.00          1.000         16.000        -87.000
