; Epics Scan 1 dimensional scan
;  current scan  = 1
;  scan dimension= 1
;  scan prefix   = 13IDE:
; PV list:
; Storage Ring Current (S:SRcurrentAI.VAL)	 = 102.2621
; Undulator Energy (ID13ds:Energy.VAL)	 = 7.4680
; Undulator Gap (ID13ds:Gap.VAL)	 = 14.0513
; Undulator Harmonic (ID13ds:HarmonicValue.VAL)	 = 1.0000
; ID H Beam Pos (BL13:SRID:HPosition.VAL)	 = 0.455
; ID H Beam Angle (BL13:SRID:HAngle.VAL)	 = -386
; ID V Beam Pos (BL13:SRID:VPosition.VAL)	 = -0.143
; ID V Beam Angle (BL13:SRID:VAngle.VAL)	 = 78
; mono d spacing (13IDE:En:dspace)	 = 3.13477
; Mono Energy drive val (13IDE:En:Energy.VAL)	 = 2450.00000
; Mono Energy readback (13IDE:En:E_RBV)	 = 2449.99914
; FOE Mono angle readback (13IDA:m65.RBV)	 = 53.82030
; mono theta offset (13IDA:m65.OFF)	 = 17.51422
; 2nd XTAL pitch (13IDA:m67.VAL)	 = -0.1620
; 2nd XTAL roll (13IDA:m68.VAL)	 = 1.0840
; 2nd XTAL pitch piezo (13IDA:DAC1_7.VAL)	 = 5.541
; 2nd XTAL roll piezo (13IDA:DAC1_8.VAL)	 = 3.774
; I0 preamp sensitivity (13IDE:A1sens_num.VAL)	 = 20
; I0 preamp units (13IDE:A1sens_unit.VAL)	 = nA/V
; I1 preamp sensitivity (13IDE:A2sens_num.VAL)	 = 200
; I1 preamp units (13IDE:A2sens_unit.VAL)	 = nA/V
; I2 preamp sensitivity (13IDE:A3sens_num.VAL)	 = 5
; I2 preamp units (13IDE:A3sens_unit.VAL)	 = uA/V
; I0 current (uA) (13XRM:ION:Current)	 =       0.0118
; I0 absorbed flux (Hz) (13XRM:ION:FluxAbs)	 =    9.619e+08
; I0 transmitted flux (Hz) (13XRM:ION:FluxOut)	 =    7.671e+10
; I0 input voltage (13XRM:ION:Volts)	 = 13IDE:userTran1.D
; I0 input amplifier (13XRM:ION:Amp)	 = 13IDE:A1
; I0 chamber length (cm) (13XRM:ION:Length)	 = 20.0
; I0 chamber gas (13XRM:ION:Gas)	 = He
; FOE H Slit Pos (13IDA:m5.VAL)	 = 1.2002
; FOE H Slit Wid (13IDA:m6.VAL)	 = 0.8001
; FOE H Slit Pos (13IDA:m7.VAL)	 = -0.4001
; FOE V Slit Wid (13IDA:m8.VAL)	 = 0.2500
; E Mono Height (13IDA:m66.VAL)	 = 22.8689
; E Mono Pitch (13IDA:m67.VAL)	 = -0.1620
; E Mono Roll (13IDA:m68.VAL)	 = 1.0840
; Table Slit Bottom (13IDE:m21.VAL)	 = 0.350
; Table Slit Top (13IDE:m22.VAL)	 = -0.350
; Table Slit Inboard (13IDE:m23.VAL)	 = 0.540
; Table Slit Outboard (13IDE:m24.VAL)	 = 0.340
; KB V mirror stripe (13IDE:m7.VAL)	 = 0.0000
; KB V mirror up height (13IDE:m8.VAL)	 = -0.5812
; KB V mirror dn force (13IDE:m9.VAL)	 = 3.9100
; KB V mirror up force (13IDE:m10.VAL)	 = 2.8900
; KB V mirror dn heigt (13IDE:m11.VAL)	 = 0.5812
; KB H mirror stripe (13IDE:m12.VAL)	 = 1.0000
; KB H mirror up height (13IDE:m13.VAL)	 = -0.5813
; KB H mirror dn force (13IDE:m14.VAL)	 = 3.6500
; KB H mirror up force (13IDE:m15.VAL)	 = 3.8500
; KB H mirror dn height (13IDE:m16.VAL)	 = 0.5813
; Sample Stage Fine X (13XRM:m1.VAL)	 = 0.00000
; Sample Stage Fine Y (13XRM:m2.VAL)	 = 0.00000
; Sample Theta (13XRM:m3.VAL)	 = 180.0000
; Sample Stage Coarse Up/Downstream (13XRM:m4.VAL)	 = 0.6017
; Sample Stage Coarse In/Outboard (13XRM:m5.VAL)	 = 10.7983
; Sample Stage Coarse X (13XRM:pm2.VAL)	 = 82.2101
; Sample Stage Coarse Z (focus) (13XRM:pm1.VAL)	 = 44.3000
; Sample Stage Coarse Y (vert) (13XRM:m6.VAL)	 = 236.9500
; Vortex X (13IDE:m34.VAL)	 = 743.1
; Vortex Y (13IDE:m4.VAL)	 = 2.950
; Vortex Z (13IDE:m19.VAL)	 = 15.0000
; Vortex dxp1 Peaking Time (13SDD1:dxp1:PeakingTime)	 = 1.000
; Vortex dxp2 Peaking Time (13SDD1:dxp2:PeakingTime)	 = 1.000
; Vortex dxp3 Peaking Time (13SDD1:dxp3:PeakingTime)	 = 1.000
; Vortex dxp4 Peaking Time (13SDD1:dxp4:PeakingTime)	 = 1.000
; Scan Regions: EXAFS scan with        3 regions
;   E0 =       2472.00
;       Start       Stop       Step       Npts       Time   Kspace?
;     -22.000    -8.0000     2.0000     8.0000     1.0000   0
;     -8.0000     16.000    0.15000     161.00     1.0000   0
;      2.0493     10.500   0.050004     170.00     1.0000   1
; scan began at time: Wed Nov 06 13:55:56 2013
;=====================================================
; scan ended at time: Wed Nov 06 14:05:00 2013
; n_points      =      337
; column labels:
; P1 = {Energy} --> 13IDE:En:Energy.VAL
; P2 = {Scaler Count Time} --> 13IDE:scaler1.TP
; P3 = {MCA Count Time} --> 13SDD1:PresetReal
; D1 = {TSCALER}  --> 13IDE:scaler1_calc1.VAL
; D2 = {I0}  --> 13IDE:scaler1_calc2.VAL
; D3 = {I1}  --> 13IDE:scaler1_calc3.VAL
; D4 = {S Ka}  --> 13SDD1:mca1.R0
; D5 = {S Ka}  --> 13SDD1:mca2.R0
; D6 = {S Ka}  --> 13SDD1:mca3.R0
; D7 = {S Ka}  --> 13SDD1:mca4.R0
; D8 = {13SDD1:dxp1:InputCountRate}  --> 13SDD1:dxp1:InputCountRate
; D9 = {13SDD1:dxp2:InputCountRate}  --> 13SDD1:dxp2:InputCountRate
; D10 = {13SDD1:dxp3:InputCountRate}  --> 13SDD1:dxp3:InputCountRate
; D11 = {13SDD1:dxp4:InputCountRate}  --> 13SDD1:dxp4:InputCountRate
; D12 = {13SDD1:dxp1:OutputCountRate}  --> 13SDD1:dxp1:OutputCountRate
; D13 = {13SDD1:dxp2:OutputCountRate}  --> 13SDD1:dxp2:OutputCountRate
; D14 = {13SDD1:dxp3:OutputCountRate}  --> 13SDD1:dxp3:OutputCountRate
; D15 = {13SDD1:dxp4:OutputCountRate}  --> 13SDD1:dxp4:OutputCountRate
;--------------------------------------------
;  P1 P2 P3 D1 D2 D3 D4 D5 D6 D7 D8 D9 D10 D11 D12 D13 D14 D15
       2450.000       1.000000       1.000000  5.000000e+007       59492.00       2893.000       4366.000       4196.000       1441.000       1853.000       19018.89       19713.97       12931.41       14423.73       18244.31       18828.23       12431.34       13951.20 
       2452.001       1.000000       1.000000  5.000000e+007       64078.00       3662.000       4956.000       4684.000       1674.000       2119.000       22617.10       23161.79       15624.42       17401.59       21588.47       22158.34       15040.17       16789.05 
       2453.999       1.000000       1.000000  5.000000e+007       66791.00       3984.000       5089.000       4783.000       1809.000       2270.000       24275.98       24975.05       16523.91       18442.55       23147.55       23785.08       15883.07       17751.82 
       2456.000       1.000000       1.000000  5.000000e+007       69235.00       4093.000       5316.000       5201.000       1911.000       2441.000       25088.69       26317.73       16995.60       19191.46       23974.75       25105.81       16361.05       18481.62 
       2458.000       1.000000       1.000000  5.000000e+007       71679.00       4143.000       5679.000       5466.000       1984.000       2493.000       25741.73       26974.64       17123.08       19344.93       24502.42       25654.10       16419.41       18569.75 
       2460.000       1.000000       1.000000  5.000000e+007       73628.00       4294.000       6029.000       5560.000       2103.000       2698.000       26643.67       27245.57       17812.42       20090.61       25384.66       25918.12       17009.47       19266.37 
       2462.000       1.000000       1.000000  5.000000e+007       75191.00       4385.000       6125.000       5875.000       2165.000       2728.000       27365.65       28471.97       18234.19       20343.54       25945.97       26998.52       17420.54       19539.47 
       2464.000       1.000000       1.000000  5.000000e+007       75880.00       4304.000       6362.000       5947.000       2358.000       2820.000       27648.80       28041.41       18144.60       20206.99       26216.33       26597.85       17383.68       19458.96 
       2464.150       1.000000       1.000000  5.000000e+007       76049.00       4274.000       6533.000       5970.000       2320.000       2888.000       27826.66       28118.04       18041.20       20176.42       26231.08       26520.61       17226.92       19307.28 
       2464.301       1.000000       1.000000  5.000000e+007       76124.00       4266.000       6448.000       5900.000       2268.000       2798.000       27455.30       27929.06       18149.93       20445.28       26004.14       26343.27       17378.38       19464.48 
       2464.450       1.000000       1.000000  5.000000e+007       76186.00       4277.000       6401.000       6084.000       2293.000       2992.000       27263.22       28331.81       18063.47       20565.42       25763.24       26649.98       17239.07       19629.03 
       2464.601       1.000000       1.000000  5.000000e+007       76217.00       4290.000       6413.000       6000.000       2415.000       2935.000       27421.57       27965.14       17997.96       20621.78       25947.86       26375.63       17145.49       19674.17 
       2464.750       1.000000       1.000000  5.000000e+007       76297.00       4263.000       6444.000       5957.000       2335.000       2888.000       27248.76       27918.95       18134.51       20208.71       25778.32       26394.38       17313.29       19299.14 
       2464.900       1.000000       1.000000  5.000000e+007       76353.00       4273.000       6586.000       6194.000       2329.000       2998.000       27807.01       28141.59       18192.12       20310.17       26277.13       26541.54       17418.82       19450.92 
       2465.050       1.000000       1.000000  5.000000e+007       76454.00       4275.000       6365.000       6101.000       2477.000       2935.000       27868.07       28311.72       18235.17       20714.06       26242.51       26621.54       17383.02       19848.85 
       2465.200       1.000000       1.000000  5.000000e+007       76462.00       4253.000       6624.000       6060.000       2362.000       3114.000       27854.74       27977.21       18101.40       20552.63       26265.93       26339.08       17268.70       19644.56 
       2465.351       1.000000       1.000000  5.000000e+007       76575.00       4258.000       6733.000       6070.000       2458.000       3043.000       27861.90       28379.35       18196.08       20410.24       26292.31       26806.72       17370.55       19521.18 
       2465.500       1.000000       1.000000  5.000000e+007       76617.00       4280.000       6685.000       6266.000       2467.000       3036.000       27996.84       28482.71       18238.38       20662.28       26442.16       26824.24       17402.09       19673.22 
       2465.651       1.000000       1.000000  5.000000e+007       76662.00       4288.000       6732.000       6148.000       2536.000       3050.000       28060.78       28232.16       18573.82       20675.88       26459.15       26575.64       17694.47       19771.75 
       2465.800       1.000000       1.000000  5.000000e+007       76717.00       4257.000       6588.000       6252.000       2496.000       3112.000       27965.49       28280.32       18090.13       20647.00       26369.59       26628.50       17219.88       19669.83 
       2465.950       1.000000       1.000000  5.000000e+007       76769.00       4269.000       6868.000       6369.000       2562.000       3225.000       27998.14       28675.83       18398.16       20732.58       26386.59       27004.37       17562.28       19732.34 
       2466.100       1.000000       1.000000  5.000000e+007       76828.00       4251.000       6766.000       6186.000       2585.000       3202.000       27989.92       28761.52       18319.33       20676.82       26407.02       27073.33       17464.13       19776.47 
       2466.250       1.000000       1.000000  5.000000e+007       76911.00       4262.000       6865.000       6354.000       2578.000       3182.000       28231.50       28514.98       18433.52       20789.58       26685.70       26871.47       17592.26       19859.15 
       2466.400       1.000000       1.000000  5.000000e+007       77032.00       4271.000       6923.000       6344.000       2656.000       3224.000       28168.04       28396.42       18359.95       20657.68       26496.37       26818.97       17508.70       19730.47 
       2466.550       1.000000       1.000000  5.000000e+007       77079.00       4279.000       6952.000       6275.000       2620.000       3316.000       28207.56       28610.73       18428.22       20782.63       26636.31       27021.20       17560.29       19907.80 
       2466.701       1.000000       1.000000  5.000000e+007       77177.00       4303.000       7007.000       6582.000       2682.000       3297.000       28812.29       29038.82       18867.85       20803.72       27157.78       27388.53       17984.57       19897.06 
       2466.851       1.000000       1.000000  5.000000e+007       77264.00       4312.000       6831.000       6523.000       2724.000       3349.000       28294.41       29102.30       18480.76       21058.71       26690.48       27377.91       17673.45       20115.92 
       2467.001       1.000000       1.000000  5.000000e+007       77249.00       4286.000       7189.000       6644.000       2859.000       3399.000       28483.55       28933.26       18715.32       20996.76       26801.36       27231.12       17860.46       20062.61 
       2467.150       1.000000       1.000000  5.000000e+007       77192.00       4287.000       7339.000       6744.000       2875.000       3500.000       28650.96       29294.91       18760.24       20983.86       26920.34       27616.05       17913.58       19968.28 
       2467.301       1.000000       1.000000  5.000000e+007       77032.00       4258.000       7316.000       6818.000       2939.000       3650.000       28761.78       29163.86       18665.26       21302.42       27099.41       27510.06       17823.83       20417.81 
       2467.450       1.000000       1.000000  5.000000e+007       76928.00       4224.000       7623.000       6951.000       3018.000       3652.000       28793.81       29061.54       18698.22       20920.46       27181.75       27318.01       17774.33       19986.28 
       2467.600       1.000000       1.000000  5.000000e+007       76822.00       4225.000       7683.000       7069.000       3082.000       3893.000       29044.92       29289.62       18901.43       21454.51       27305.67       27567.60       18035.95       20463.87 
       2467.750       1.000000       1.000000  5.000000e+007       76684.00       4190.000       7806.000       7318.000       3380.000       4012.000       29059.28       29457.66       19169.46       21584.22       27367.62       27695.57       18287.07       20628.89 
       2467.900       1.000000       1.000000  5.000000e+007       76503.00       4131.000       8232.000       7473.000       3468.000       4237.000       29412.87       29495.38       19016.76       21579.85       27720.08       27730.35       18108.45       20579.24 
       2468.051       1.000000       1.000000  5.000000e+007       76559.00       4128.000       8567.000       7968.000       3834.000       4636.000       29766.18       30263.08       19372.68       22291.28       28036.91       28421.10       18428.65       21255.61 
       2468.200       1.000000       1.000000  5.000000e+007       76634.00       4139.000       8905.000       8409.000       3995.000       5065.000       30188.07       30550.77       19678.41       22400.36       28419.07       28669.00       18723.48       21360.55 
       2468.351       1.000000       1.000000  5.000000e+007       76725.00       4155.000       9367.000       8714.000       4406.000       5307.000       30591.27       31211.32       20082.84       22981.31       28759.28       29278.52       19132.75       21813.16 
       2468.500       1.000000       1.000000  5.000000e+007       76755.00       4130.000       9719.000       9068.000       4585.000       5519.000       30996.15       31789.16       20420.52       23058.47       29066.02       29824.49       19411.28       21879.56 
       2468.651       1.000000       1.000000  5.000000e+007       76856.00       4131.000       10007.00       9483.000       4762.000       5892.000       31507.75       31977.07       20740.98       23458.75       29568.80       29934.46       19683.38       22330.80 
       2468.801       1.000000       1.000000  5.000000e+007       76931.00       4156.000       10072.00       9423.000       4873.000       5872.000       31486.75       31918.49       21129.46       23673.58       29566.84       29864.68       20031.43       22489.75 
       2468.951       1.000000       1.000000  5.000000e+007       77035.00       4146.000       10390.00       9712.000       4897.000       5960.000       32179.06       32461.65       20799.16       23452.45       30122.65       30365.03       19780.32       22277.40 
       2469.100       1.000000       1.000000  5.000000e+007       77067.00       4142.000       10462.00       9859.000       5083.000       6035.000       32032.97       32426.64       21229.81       23858.29       30025.82       30324.21       20163.24       22655.53 
       2469.252       1.000000       1.000000  5.000000e+007       77258.00       4139.000       10518.00       10138.00       5034.000       6249.000       32076.63       32756.11       21025.20       23978.14       30061.16       30718.76       19956.20       22743.35 
       2469.400       1.000000       1.000000  5.000000e+007       77398.00       4128.000       10688.00       10281.00       5268.000       6446.000       32564.21       33102.30       21437.40       24151.18       30509.53       30952.50       20305.99       22925.20 
       2469.550       1.000000       1.000000  5.000000e+007       77596.00       4118.000       11120.00       10428.00       5626.000       6689.000       32722.28       33371.67       21465.01       24354.92       30606.80       31137.79       20359.15       23152.85 
       2469.700       1.000000       1.000000  5.000000e+007       77881.00       4128.000       11661.00       10952.00       5946.000       6861.000       33806.23       34049.38       22335.60       24602.83       31571.85       31781.71       21113.37       23371.33 
       2469.851       1.000000       1.000000  5.000000e+007       77917.00       4144.000       11628.00       11270.00       6098.000       7382.000       33587.16       34441.23       22436.00       25524.00       31340.47       32132.54       21307.18       24201.95 
       2470.000       1.000000       1.000000  5.000000e+007       78306.00       4150.000       12278.00       11637.00       6490.000       7826.000       34271.13       35078.88       23010.37       26197.87       31896.78       32739.19       21766.64       24763.39 
       2470.150       1.000000       1.000000  5.000000e+007       78330.00       4124.000       12931.00       12362.00       6829.000       8175.000       35057.79       35810.46       23280.63       26425.73       32788.94       33361.22       22034.25       25058.09 
       2470.301       1.000000       1.000000  5.000000e+007       78276.00       4112.000       13539.00       12836.00       7190.000       8908.000       35913.83       36739.62       23736.84       27135.10       33440.21       34162.37       22470.90       25712.42 
       2470.451       1.000000       1.000000  5.000000e+007       78421.00       4134.000       14176.00       13750.00       7864.000       9410.000       37056.48       37929.42       24603.34       27759.73       34508.16       35293.61       23272.06       26317.87 
       2470.600       1.000000       1.000000  5.000000e+007       78433.00       4149.000       15144.00       14622.00       8607.000       9950.000       37826.68       38644.31       25520.66       28533.40       35284.61       35871.74       24093.66       26958.94 
       2470.750       1.000000       1.000000  5.000000e+007       78443.00       4112.000       16765.00       15871.00       9366.000       11350.00       39758.08       40346.41       26589.38       30338.16       36717.92       37336.63       24992.22       28530.75 
       2470.900       1.000000       1.000000  5.000000e+007       78565.00       4147.000       18728.00       17703.00       10904.00       12865.00       42274.69       43145.69       28413.09       32223.40       39032.54       39838.43       26678.42       30190.29 
       2471.050       1.000000       1.000000  5.000000e+007       78472.00       4121.000       20737.00       20308.00       12386.00       14678.00       44665.19       46171.99       30387.95       34432.52       40991.10       42314.85       28389.28       32024.38 
