; Epics Scan 1 dimensional scan
;  current scan  = 1
;  scan dimension= 1
;  scan prefix   = 13IDE:
; PV list:
; Storage Ring Current (S:SRcurrentAI.VAL)	 = 102.1903
; Undulator Energy (ID13ds:Energy.VAL)	 = 7.4681
; Undulator Gap (ID13ds:Gap.VAL)	 = 14.0514
; Undulator Harmonic (ID13ds:HarmonicValue.VAL)	 = 1.0000
; ID H Beam Pos (BL13:SRID:HPosition.VAL)	 = 0.453
; ID H Beam Angle (BL13:SRID:HAngle.VAL)	 = -387
; ID V Beam Pos (BL13:SRID:VPosition.VAL)	 = -0.143
; ID V Beam Angle (BL13:SRID:VAngle.VAL)	 = 78
; mono d spacing (13IDE:En:dspace)	 = 3.13477
; Mono Energy drive val (13IDE:En:Energy.VAL)	 = 2450.00000
; Mono Energy readback (13IDE:En:E_RBV)	 = 2449.99986
; FOE Mono angle readback (13IDA:m65.RBV)	 = 53.82027
; mono theta offset (13IDA:m65.OFF)	 = 17.51422
; 2nd XTAL pitch (13IDA:m67.VAL)	 = -0.1620
; 2nd XTAL roll (13IDA:m68.VAL)	 = 1.0840
; 2nd XTAL pitch piezo (13IDA:DAC1_7.VAL)	 = 5.525
; 2nd XTAL roll piezo (13IDA:DAC1_8.VAL)	 = 4.049
; I0 preamp sensitivity (13IDE:A1sens_num.VAL)	 = 20
; I0 preamp units (13IDE:A1sens_unit.VAL)	 = nA/V
; I1 preamp sensitivity (13IDE:A2sens_num.VAL)	 = 200
; I1 preamp units (13IDE:A2sens_unit.VAL)	 = nA/V
; I2 preamp sensitivity (13IDE:A3sens_num.VAL)	 = 5
; I2 preamp units (13IDE:A3sens_unit.VAL)	 = uA/V
; I0 current (uA) (13XRM:ION:Current)	 =       0.0155
; I0 absorbed flux (Hz) (13XRM:ION:FluxAbs)	 =    1.269e+09
; I0 transmitted flux (Hz) (13XRM:ION:FluxOut)	 =    1.012e+11
; I0 input voltage (13XRM:ION:Volts)	 = 13IDE:userTran1.D
; I0 input amplifier (13XRM:ION:Amp)	 = 13IDE:A1
; I0 chamber length (cm) (13XRM:ION:Length)	 = 20.0
; I0 chamber gas (13XRM:ION:Gas)	 = He
; FOE H Slit Pos (13IDA:m5.VAL)	 = 1.2002
; FOE H Slit Wid (13IDA:m6.VAL)	 = 0.8001
; FOE H Slit Pos (13IDA:m7.VAL)	 = -0.4001
; FOE V Slit Wid (13IDA:m8.VAL)	 = 0.2500
; E Mono Height (13IDA:m66.VAL)	 = 22.8689
; E Mono Pitch (13IDA:m67.VAL)	 = -0.1620
; E Mono Roll (13IDA:m68.VAL)	 = 1.0840
; Table Slit Bottom (13IDE:m21.VAL)	 = 0.350
; Table Slit Top (13IDE:m22.VAL)	 = -0.350
; Table Slit Inboard (13IDE:m23.VAL)	 = 0.540
; Table Slit Outboard (13IDE:m24.VAL)	 = 0.340
; KB V mirror stripe (13IDE:m7.VAL)	 = 0.0000
; KB V mirror up height (13IDE:m8.VAL)	 = -0.5812
; KB V mirror dn force (13IDE:m9.VAL)	 = 3.9100
; KB V mirror up force (13IDE:m10.VAL)	 = 2.8900
; KB V mirror dn heigt (13IDE:m11.VAL)	 = 0.5812
; KB H mirror stripe (13IDE:m12.VAL)	 = 1.0000
; KB H mirror up height (13IDE:m13.VAL)	 = -0.5813
; KB H mirror dn force (13IDE:m14.VAL)	 = 3.6500
; KB H mirror up force (13IDE:m15.VAL)	 = 3.8500
; KB H mirror dn height (13IDE:m16.VAL)	 = 0.5813
; Sample Stage Fine X (13XRM:m1.VAL)	 = 0.00000
; Sample Stage Fine Y (13XRM:m2.VAL)	 = 0.00000
; Sample Theta (13XRM:m3.VAL)	 = 180.0000
; Sample Stage Coarse Up/Downstream (13XRM:m4.VAL)	 = -19.6590
; Sample Stage Coarse In/Outboard (13XRM:m5.VAL)	 = 30.4190
; Sample Stage Coarse X (13XRM:pm2.VAL)	 = 110.4105
; Sample Stage Coarse Z (focus) (13XRM:pm1.VAL)	 = 44.6200
; Sample Stage Coarse Y (vert) (13XRM:m6.VAL)	 = 213.8500
; Vortex X (13IDE:m34.VAL)	 = 743.1
; Vortex Y (13IDE:m4.VAL)	 = 2.950
; Vortex Z (13IDE:m19.VAL)	 = 15.0000
; Vortex dxp1 Peaking Time (13SDD1:dxp1:PeakingTime)	 = 1.000
; Vortex dxp2 Peaking Time (13SDD1:dxp2:PeakingTime)	 = 1.000
; Vortex dxp3 Peaking Time (13SDD1:dxp3:PeakingTime)	 = 1.000
; Vortex dxp4 Peaking Time (13SDD1:dxp4:PeakingTime)	 = 1.000
; Scan Regions: EXAFS scan with        3 regions
;   E0 =       2472.00
;       Start       Stop       Step       Npts       Time   Kspace?
;     -22.000    -8.0000     2.0000     8.0000     1.0000   0
;     -8.0000     16.000    0.15000     161.00     1.0000   0
;      2.0493     10.500   0.050004     170.00     1.0000   1
; scan began at time: Wed Nov 06 12:59:09 2013
;=====================================================
; scan ended at time: Wed Nov 06 13:08:15 2013
; n_points      =      337
; column labels:
; P1 = {Energy} --> 13IDE:En:Energy.VAL
; P2 = {Scaler Count Time} --> 13IDE:scaler1.TP
; P3 = {MCA Count Time} --> 13SDD1:PresetReal
; D1 = {TSCALER}  --> 13IDE:scaler1_calc1.VAL
; D2 = {I0}  --> 13IDE:scaler1_calc2.VAL
; D3 = {I1}  --> 13IDE:scaler1_calc3.VAL
; D4 = {S Ka}  --> 13SDD1:mca1.R0
; D5 = {S Ka}  --> 13SDD1:mca2.R0
; D6 = {S Ka}  --> 13SDD1:mca3.R0
; D7 = {S Ka}  --> 13SDD1:mca4.R0
; D8 = {13SDD1:dxp1:InputCountRate}  --> 13SDD1:dxp1:InputCountRate
; D9 = {13SDD1:dxp2:InputCountRate}  --> 13SDD1:dxp2:InputCountRate
; D10 = {13SDD1:dxp3:InputCountRate}  --> 13SDD1:dxp3:InputCountRate
; D11 = {13SDD1:dxp4:InputCountRate}  --> 13SDD1:dxp4:InputCountRate
; D12 = {13SDD1:dxp1:OutputCountRate}  --> 13SDD1:dxp1:OutputCountRate
; D13 = {13SDD1:dxp2:OutputCountRate}  --> 13SDD1:dxp2:OutputCountRate
; D14 = {13SDD1:dxp3:OutputCountRate}  --> 13SDD1:dxp3:OutputCountRate
; D15 = {13SDD1:dxp4:OutputCountRate}  --> 13SDD1:dxp4:OutputCountRate
;--------------------------------------------
;  P1 P2 P3 D1 D2 D3 D4 D5 D6 D7 D8 D9 D10 D11 D12 D13 D14 D15
       2449.999       1.000000       1.000000  5.000000e+007       80561.00       3044.000       5524.000       5299.000       1771.000       2035.000       15350.57       15484.61       8647.590       9720.864       14870.99       14921.84       8437.075       9526.056 
       2452.001       1.000000       1.000000  5.000000e+007       83991.00       3853.000       6071.000       5741.000       2017.000       2363.000       16724.16       16929.05       9505.319       10916.95       16198.63       16386.25       9266.402       10668.09 
       2454.000       1.000000       1.000000  5.000000e+007       84521.00       4022.000       6085.000       5819.000       2003.000       2486.000       17003.31       17250.51       9780.197       11304.02       16477.39       16657.75       9516.366       11061.88 
       2455.999       1.000000       1.000000  5.000000e+007       85288.00       4120.000       6256.000       5954.000       2088.000       2525.000       17433.95       17877.52       10122.99       11697.06       16871.96       17249.43       9864.646       11419.22 
       2458.000       1.000000       1.000000  5.000000e+007       85729.00       3902.000       6416.000       5992.000       2027.000       2516.000       17607.14       17765.54       9888.691       11280.93       17011.13       17134.01       9673.734       10985.61 
       2460.000       1.000000       1.000000  5.000000e+007       85162.00       3797.000       6428.000       6124.000       2117.000       2605.000       17656.84       17870.03       9885.733       11624.32       17095.14       17289.90       9647.319       11354.49 
       2462.001       1.000000       1.000000  5.000000e+007       84062.00       3669.000       6597.000       6171.000       2131.000       2537.000       17790.88       17996.73       9860.185       11385.02       17200.81       17397.85       9637.643       11142.22 
       2464.000       1.000000       1.000000  5.000000e+007       82155.00       3550.000       6688.000       6199.000       2234.000       2672.000       17701.10       17761.55       9754.913       11395.21       17170.93       17142.04       9490.013       11163.15 
       2464.150       1.000000       1.000000  5.000000e+007       81789.00       3461.000       6625.000       6269.000       2299.000       2676.000       17952.21       18079.46       9951.171       11360.44       17348.24       17429.20       9689.388       11099.68 
       2464.301       1.000000       1.000000  5.000000e+007       81727.00       3456.000       6954.000       6193.000       2253.000       2654.000       17990.12       17756.22       9778.731       11138.17       17360.62       17135.94       9545.697       10862.02 
       2464.450       1.000000       1.000000  5.000000e+007       81541.00       3430.000       6806.000       6152.000       2191.000       2874.000       18045.68       17864.91       9578.307       11462.56       17376.79       17185.25       9354.291       11193.82 
       2464.601       1.000000       1.000000  5.000000e+007       81549.00       3454.000       6710.000       6311.000       2311.000       2677.000       18292.62       17773.96       10133.04       11300.61       17658.48       17183.18       9848.336       11023.23 
       2464.751       1.000000       1.000000  5.000000e+007       81493.00       3456.000       6824.000       6528.000       2273.000       2779.000       18080.11       18182.03       9895.172       11498.79       17416.40       17535.20       9634.052       11214.17 
       2464.901       1.000000       1.000000  5.000000e+007       81413.00       3469.000       6910.000       6556.000       2311.000       2838.000       18285.65       18197.70       10003.70       11697.40       17637.83       17560.54       9707.824       11410.32 
       2465.051       1.000000       1.000000  5.000000e+007       81250.00       3447.000       6819.000       6516.000       2380.000       2758.000       17937.40       18356.29       9970.137       11331.42       17316.83       17664.36       9732.595       11046.98 
       2465.201       1.000000       1.000000  5.000000e+007       80913.00       3426.000       6821.000       6420.000       2307.000       2878.000       18185.72       18063.60       9776.243       11785.83       17547.92       17405.72       9540.058       11510.47 
       2465.350       1.000000       1.000000  5.000000e+007       80870.00       3426.000       6924.000       6308.000       2304.000       2985.000       18167.83       17895.09       9931.391       11492.27       17588.88       17241.29       9666.960       11241.68 
       2465.501       1.000000       1.000000  5.000000e+007       80713.00       3430.000       6875.000       6435.000       2398.000       2874.000       18165.96       18174.42       9869.251       11512.86       17544.20       17498.44       9608.301       11212.41 
       2465.650       1.000000       1.000000  5.000000e+007       80305.00       3414.000       6943.000       6575.000       2423.000       2887.000       18005.51       18102.70       9948.538       11551.47       17374.46       17397.72       9714.522       11260.77 
       2465.802       1.000000       1.000000  5.000000e+007       79842.00       3366.000       7119.000       6563.000       2416.000       3000.000       18390.03       18188.62       9810.979       11487.16       17771.47       17476.58       9566.091       11196.37 
       2465.951       1.000000       1.000000  5.000000e+007       79042.00       3312.000       6895.000       6439.000       2403.000       3016.000       18072.74       18031.11       9870.109       11616.83       17403.59       17323.60       9626.115       11339.10 
       2466.102       1.000000       1.000000  5.000000e+007       78444.00       3256.000       7045.000       6506.000       2492.000       3062.000       18033.01       17945.00       9789.537       11430.43       17435.98       17297.02       9551.646       11163.21 
       2466.251       1.000000       1.000000  5.000000e+007       78225.00       3255.000       7152.000       6494.000       2433.000       3035.000       18240.30       18131.73       9881.044       11483.56       17614.86       17491.44       9617.146       11197.03 
       2466.400       1.000000       1.000000  5.000000e+007       78018.00       3255.000       7244.000       6560.000       2504.000       3130.000       18499.81       18192.73       9865.774       11587.77       17883.03       17483.69       9627.223       11333.44 
       2466.552       1.000000       1.000000  5.000000e+007       77608.00       3221.000       7125.000       6652.000       2603.000       3195.000       18130.25       18081.52       9974.315       11585.35       17455.67       17397.36       9720.418       11314.82 
       2466.701       1.000000       1.000000  5.000000e+007       77463.00       3214.000       7338.000       6833.000       2627.000       3265.000       18358.19       18383.96       9974.209       11965.68       17699.38       17692.59       9721.634       11657.18 
       2466.849       1.000000       1.000000  5.000000e+007       77618.00       3224.000       7539.000       6731.000       2709.000       3253.000       18809.18       18092.51       10110.34       11653.84       18077.13       17352.76       9885.238       11379.05 
       2467.000       1.000000       1.000000  5.000000e+007       79014.00       3254.000       7763.000       7044.000       2856.000       3435.000       19003.07       18575.29       10381.11       11903.10       18329.05       17900.21       10107.27       11632.55 
       2467.149       1.000000       1.000000  5.000000e+007       78996.00       3246.000       7895.000       7259.000       2962.000       3574.000       19220.21       18723.28       10221.19       12210.73       18549.05       18038.98       9976.634       11898.91 
       2467.301       1.000000       1.000000  5.000000e+007       80826.00       3296.000       8217.000       7570.000       3103.000       3745.000       19691.47       19372.80       10797.50       12366.45       18945.24       18622.15       10545.24       12033.02 
       2467.451       1.000000       1.000000  5.000000e+007       80912.00       3309.000       8333.000       7843.000       3269.000       3830.000       19734.34       19763.29       10874.99       12445.49       18986.83       18932.65       10593.40       12132.88 
       2467.601       1.000000       1.000000  5.000000e+007       82537.00       3361.000       8624.000       8214.000       3333.000       4116.000       20111.38       20228.30       11021.44       13000.00       19315.71       19428.43       10741.79       12661.23 
       2467.751       1.000000       1.000000  5.000000e+007       82898.00       3375.000       8923.000       8326.000       3593.000       4171.000       20534.98       20532.77       11345.90       12943.29       19684.60       19698.71       11059.45       12556.04 
       2467.901       1.000000       1.000000  5.000000e+007       84166.00       3422.000       9388.000       8891.000       3756.000       4564.000       21116.29       21175.23       11574.12       13361.15       20281.96       20315.56       11241.62       12956.52 
       2468.051       1.000000       1.000000  5.000000e+007       84658.00       3438.000       9623.000       9208.000       3886.000       4778.000       21586.45       21692.33       11798.82       13657.86       20591.91       20776.26       11442.66       13276.08 
       2468.201       1.000000       1.000000  5.000000e+007       85584.00       3447.000       10196.00       9571.000       4291.000       5198.000       22170.96       22219.74       12376.50       14558.12       21205.55       21270.43       12006.44       14100.03 
       2468.351       1.000000       1.000000  5.000000e+007       85881.00       3440.000       10790.00       10202.00       4671.000       5413.000       22813.28       23021.78       12818.04       14636.00       21785.50       22017.77       12443.00       14170.26 
       2468.500       1.000000       1.000000  5.000000e+007       86895.00       3475.000       11497.00       10585.00       4879.000       5940.000       23746.13       23476.21       13213.19       15132.63       22655.54       22396.52       12807.12       14678.47 
       2468.651       1.000000       1.000000  5.000000e+007       87286.00       3488.000       12186.00       11468.00       5357.000       6584.000       24724.29       24744.32       13649.31       16173.18       23571.09       23599.87       13194.43       15637.48 
       2468.801       1.000000       1.000000  5.000000e+007       87406.00       3504.000       13042.00       12402.00       5898.000       7229.000       25683.98       25810.16       14577.39       16665.41       24448.32       24552.12       14064.17       16155.71 
       2468.952       1.000000       1.000000  5.000000e+007       87534.00       3485.000       14320.00       13523.00       6688.000       7935.000       27359.53       27080.49       15299.87       17563.55       25968.57       25681.28       14739.92       16944.10 
       2469.100       1.000000       1.000000  5.000000e+007       87487.00       3458.000       15972.00       15090.00       7643.000       8936.000       29226.76       29186.74       16492.06       18793.25       27703.82       27612.23       15886.67       18095.49 
       2469.251       1.000000       1.000000  5.000000e+007       87733.00       3408.000       17724.00       16978.00       8799.000       10678.00       31441.49       31682.34       17619.30       20901.09       29664.58       29875.85       16946.27       20052.79 
       2469.400       1.000000       1.000000  5.000000e+007       87711.00       3412.000       19943.00       19567.00       10471.00       12262.00       34233.27       34908.22       19822.44       22740.50       32067.34       32710.29       19039.14       21759.12 
       2469.551       1.000000       1.000000  5.000000e+007       87895.00       3411.000       22631.00       22018.00       11868.00       14293.00       37188.60       38453.16       21854.94       25279.08       34745.43       35794.04       20830.60       24005.62 
       2469.700       1.000000       1.000000  5.000000e+007       88093.00       3409.000       25184.00       24204.00       13357.00       16214.00       40749.79       41227.76       23847.34       27574.16       37818.84       38200.52       22648.68       26105.98 
       2469.850       1.000000       1.000000  5.000000e+007       88248.00       3394.000       27150.00       26428.00       14651.00       17653.00       43166.59       44244.40       25381.29       29527.09       39750.83       40851.89       24063.58       27913.47 
       2470.000       1.000000       1.000000  5.000000e+007       88205.00       3424.000       28162.00       27425.00       15731.00       18877.00       44285.97       45971.21       26782.81       31114.89       40961.60       42290.62       25341.61       29281.01 
       2470.150       1.000000       1.000000  5.000000e+007       88358.00       3442.000       29094.00       28601.00       16351.00       19445.00       45632.76       47104.38       27782.78       31784.78       42048.46       43418.86       26180.24       29986.41 
       2470.301       1.000000       1.000000  5.000000e+007       88364.00       3431.000       29870.00       28897.00       16486.00       19873.00       46734.54       47835.06       28130.47       32453.66       43008.34       43777.55       26435.28       30538.44 
       2470.450       1.000000       1.000000  5.000000e+007       88384.00       3410.000       30485.00       29820.00       17182.00       20499.00       47600.49       48896.05       28747.93       33217.74       43646.58       44958.48       27072.49       31243.97 
       2470.601       1.000000       1.000000  5.000000e+007       88473.00       3427.000       31582.00       30648.00       17977.00       21288.00       49166.05       50799.14       29777.22       34243.66       44768.23       46253.27       28087.78       32113.17 
       2470.750       1.000000       1.000000  5.000000e+007       88529.00       3407.000       34873.00       33732.00       19881.00       23321.00       53317.78       54642.17       32308.00       36869.82       48514.12       49618.86       30285.06       34334.17 
       2470.900       1.000000       1.000000  5.000000e+007       88297.00       3351.000       38939.00       37423.00       23019.00       27131.00       59063.88       60454.32       36984.17       41822.00       53121.64       54324.28       34176.77       38645.88 
       2471.051       1.000000       1.000000  5.000000e+007       88416.00       3328.000       44753.00       43847.00       27212.00       31806.00       67813.08       70445.45       42563.00       48413.99       60060.27       62406.00       39031.82       44201.23 
