; Epics Scan 1 dimensional scan
;  current scan  = 1
;  scan dimension= 1
;  scan prefix   = 13IDE:
; PV list:
; Storage Ring Current (S:SRcurrentAI.VAL)	 = 102.3624
; Undulator Energy (ID13ds:Energy.VAL)	 = 7.4680
; Undulator Gap (ID13ds:Gap.VAL)	 = 14.0513
; Undulator Harmonic (ID13ds:HarmonicValue.VAL)	 = 1.0000
; ID H Beam Pos (BL13:SRID:HPosition.VAL)	 = 0.454
; ID H Beam Angle (BL13:SRID:HAngle.VAL)	 = -386
; ID V Beam Pos (BL13:SRID:VPosition.VAL)	 = -0.143
; ID V Beam Angle (BL13:SRID:VAngle.VAL)	 = 78
; mono d spacing (13IDE:En:dspace)	 = 3.13477
; Mono Energy drive val (13IDE:En:Energy.VAL)	 = 2450.00000
; Mono Energy readback (13IDE:En:E_RBV)	 = 2450.00010
; FOE Mono angle readback (13IDA:m65.RBV)	 = 53.82027
; mono theta offset (13IDA:m65.OFF)	 = 17.51422
; 2nd XTAL pitch (13IDA:m67.VAL)	 = -0.1620
; 2nd XTAL roll (13IDA:m68.VAL)	 = 1.0840
; 2nd XTAL pitch piezo (13IDA:DAC1_7.VAL)	 = 5.442
; 2nd XTAL roll piezo (13IDA:DAC1_8.VAL)	 = 4.049
; I0 preamp sensitivity (13IDE:A1sens_num.VAL)	 = 20
; I0 preamp units (13IDE:A1sens_unit.VAL)	 = nA/V
; I1 preamp sensitivity (13IDE:A2sens_num.VAL)	 = 200
; I1 preamp units (13IDE:A2sens_unit.VAL)	 = nA/V
; I2 preamp sensitivity (13IDE:A3sens_num.VAL)	 = 5
; I2 preamp units (13IDE:A3sens_unit.VAL)	 = uA/V
; I0 current (uA) (13XRM:ION:Current)	 =       0.0117
; I0 absorbed flux (Hz) (13XRM:ION:FluxAbs)	 =    9.567e+08
; I0 transmitted flux (Hz) (13XRM:ION:FluxOut)	 =    7.630e+10
; I0 input voltage (13XRM:ION:Volts)	 = 13IDE:userTran1.D
; I0 input amplifier (13XRM:ION:Amp)	 = 13IDE:A1
; I0 chamber length (cm) (13XRM:ION:Length)	 = 20.0
; I0 chamber gas (13XRM:ION:Gas)	 = He
; FOE H Slit Pos (13IDA:m5.VAL)	 = 1.2002
; FOE H Slit Wid (13IDA:m6.VAL)	 = 0.8001
; FOE H Slit Pos (13IDA:m7.VAL)	 = -0.4001
; FOE V Slit Wid (13IDA:m8.VAL)	 = 0.2500
; E Mono Height (13IDA:m66.VAL)	 = 22.8689
; E Mono Pitch (13IDA:m67.VAL)	 = -0.1620
; E Mono Roll (13IDA:m68.VAL)	 = 1.0840
; Table Slit Bottom (13IDE:m21.VAL)	 = 0.350
; Table Slit Top (13IDE:m22.VAL)	 = -0.350
; Table Slit Inboard (13IDE:m23.VAL)	 = 0.540
; Table Slit Outboard (13IDE:m24.VAL)	 = 0.340
; KB V mirror stripe (13IDE:m7.VAL)	 = 0.0000
; KB V mirror up height (13IDE:m8.VAL)	 = -0.5812
; KB V mirror dn force (13IDE:m9.VAL)	 = 3.9100
; KB V mirror up force (13IDE:m10.VAL)	 = 2.8900
; KB V mirror dn heigt (13IDE:m11.VAL)	 = 0.5812
; KB H mirror stripe (13IDE:m12.VAL)	 = 1.0000
; KB H mirror up height (13IDE:m13.VAL)	 = -0.5813
; KB H mirror dn force (13IDE:m14.VAL)	 = 3.6500
; KB H mirror up force (13IDE:m15.VAL)	 = 3.8500
; KB H mirror dn height (13IDE:m16.VAL)	 = 0.5813
; Sample Stage Fine X (13XRM:m1.VAL)	 = 0.00000
; Sample Stage Fine Y (13XRM:m2.VAL)	 = 0.00000
; Sample Theta (13XRM:m3.VAL)	 = 180.0000
; Sample Stage Coarse Up/Downstream (13XRM:m4.VAL)	 = -19.8160
; Sample Stage Coarse In/Outboard (13XRM:m5.VAL)	 = 30.6160
; Sample Stage Coarse X (13XRM:pm2.VAL)	 = 110.6608
; Sample Stage Coarse Z (focus) (13XRM:pm1.VAL)	 = 44.6000
; Sample Stage Coarse Y (vert) (13XRM:m6.VAL)	 = 213.6500
; Vortex X (13IDE:m34.VAL)	 = 743.1
; Vortex Y (13IDE:m4.VAL)	 = 2.950
; Vortex Z (13IDE:m19.VAL)	 = 15.0000
; Vortex dxp1 Peaking Time (13SDD1:dxp1:PeakingTime)	 = 1.000
; Vortex dxp2 Peaking Time (13SDD1:dxp2:PeakingTime)	 = 1.000
; Vortex dxp3 Peaking Time (13SDD1:dxp3:PeakingTime)	 = 1.000
; Vortex dxp4 Peaking Time (13SDD1:dxp4:PeakingTime)	 = 1.000
; Scan Regions: EXAFS scan with        3 regions
;   E0 =       2472.00
;       Start       Stop       Step       Npts       Time   Kspace?
;     -22.000    -8.0000     2.0000     8.0000     1.0000   0
;     -8.0000     16.000    0.15000     161.00     1.0000   0
;      2.0493     10.500   0.050004     170.00     1.0000   1
; scan began at time: Wed Nov 06 12:48:34 2013
;=====================================================
; scan ended at time: Wed Nov 06 12:57:41 2013
; n_points      =      337
; column labels:
; P1 = {Energy} --> 13IDE:En:Energy.VAL
; P2 = {Scaler Count Time} --> 13IDE:scaler1.TP
; P3 = {MCA Count Time} --> 13SDD1:PresetReal
; D1 = {TSCALER}  --> 13IDE:scaler1_calc1.VAL
; D2 = {I0}  --> 13IDE:scaler1_calc2.VAL
; D3 = {I1}  --> 13IDE:scaler1_calc3.VAL
; D4 = {S Ka}  --> 13SDD1:mca1.R0
; D5 = {S Ka}  --> 13SDD1:mca2.R0
; D6 = {S Ka}  --> 13SDD1:mca3.R0
; D7 = {S Ka}  --> 13SDD1:mca4.R0
; D8 = {13SDD1:dxp1:InputCountRate}  --> 13SDD1:dxp1:InputCountRate
; D9 = {13SDD1:dxp2:InputCountRate}  --> 13SDD1:dxp2:InputCountRate
; D10 = {13SDD1:dxp3:InputCountRate}  --> 13SDD1:dxp3:InputCountRate
; D11 = {13SDD1:dxp4:InputCountRate}  --> 13SDD1:dxp4:InputCountRate
; D12 = {13SDD1:dxp1:OutputCountRate}  --> 13SDD1:dxp1:OutputCountRate
; D13 = {13SDD1:dxp2:OutputCountRate}  --> 13SDD1:dxp2:OutputCountRate
; D14 = {13SDD1:dxp3:OutputCountRate}  --> 13SDD1:dxp3:OutputCountRate
; D15 = {13SDD1:dxp4:OutputCountRate}  --> 13SDD1:dxp4:OutputCountRate
;--------------------------------------------
;  P1 P2 P3 D1 D2 D3 D4 D5 D6 D7 D8 D9 D10 D11 D12 D13 D14 D15
       2450.000       1.000000       1.000000  5.000000e+007       59034.00       1496.000       3661.000       3422.000       1018.000       1267.000       8465.464       8767.258       4717.495       5358.812       8324.368       8598.843       4635.006       5275.723 
       2452.000       1.000000       1.000000  5.000000e+007       64134.00       1999.000       4019.000       3808.000       1162.000       1408.000       9656.185       9865.886       5417.954       6099.507       9488.304       9690.055       5331.343       5989.438 
       2454.000       1.000000       1.000000  5.000000e+007       67529.00       2240.000       4324.000       4070.000       1229.000       1571.000       10510.97       10697.56       5762.452       6772.573       10281.63       10436.46       5672.226       6654.583 
       2456.001       1.000000       1.000000  5.000000e+007       71096.00       2431.000       4529.000       4245.000       1361.000       1684.000       11226.22       11393.36       6305.558       7171.925       10994.42       11145.09       6182.357       7033.374 
       2458.000       1.000000       1.000000  5.000000e+007       79529.00       2749.000       5193.000       4954.000       1491.000       1915.000       12599.07       12960.38       6958.680       8171.471       12284.01       12606.04       6846.329       8023.965 
       2460.000       1.000000       1.000000  5.000000e+007       89025.00       3139.000       5850.000       5511.000       1833.000       2180.000       14532.51       14584.55       8068.864       9231.872       14183.09       14172.62       7905.713       9066.565 
       2462.000       1.000000       1.000000  5.000000e+007       89765.00       3090.000       6129.000       5714.000       1835.000       2326.000       14734.86       14819.94       7818.379       9286.749       14310.38       14385.80       7647.036       9138.130 
       2463.999       1.000000       1.000000  5.000000e+007       90768.00       3165.000       6450.000       5818.000       2018.000       2560.000       15245.40       15107.55       8297.964       9651.428       14832.75       14669.70       8132.212       9481.590 
       2464.151       1.000000       1.000000  5.000000e+007       90818.00       3080.000       6384.000       5852.000       1984.000       2418.000       15156.25       15006.00       8100.931       9425.284       14724.05       14523.74       7934.428       9217.214 
       2464.301       1.000000       1.000000  5.000000e+007       91044.00       3103.000       6634.000       5903.000       2103.000       2495.000       15369.24       15121.78       8262.148       9525.913       14882.91       14632.49       8070.931       9348.910 
       2464.449       1.000000       1.000000  5.000000e+007       85289.00       2630.000       6135.000       5732.000       1860.000       2417.000       14407.33       14167.41       7603.879       8975.834       13995.49       13744.69       7415.083       8773.867 
       2464.601       1.000000       1.000000  5.000000e+007       84924.00       2645.000       6226.000       5747.000       1893.000       2341.000       14504.67       14356.91       7611.684       8862.456       14070.63       13943.42       7457.299       8699.140 
       2464.751       1.000000       1.000000  5.000000e+007       84956.00       2656.000       6260.000       5721.000       1976.000       2367.000       14295.26       14295.32       7785.375       8746.177       13932.62       13821.88       7626.028       8553.721 
       2464.900       1.000000       1.000000  5.000000e+007       86486.00       2783.000       6515.000       5662.000       2006.000       2479.000       14780.49       14492.46       7916.861       9039.734       14378.42       14058.04       7751.217       8870.683 
       2465.051       1.000000       1.000000  5.000000e+007       90686.00       3090.000       6690.000       6055.000       2133.000       2652.000       15548.61       15426.39       8425.763       9526.412       15065.51       14913.90       8237.618       9324.521 
       2465.201       1.000000       1.000000  5.000000e+007       90494.00       3045.000       6680.000       6120.000       2132.000       2588.000       15499.94       15425.55       8328.701       9430.824       15002.12       14903.25       8152.788       9258.503 
       2465.351       1.000000       1.000000  5.000000e+007       90358.00       3047.000       6760.000       6274.000       2193.000       2727.000       15669.06       15516.54       8248.315       9579.287       15184.29       15033.09       8074.807       9385.696 
       2465.502       1.000000       1.000000  5.000000e+007       90342.00       3032.000       6721.000       6208.000       2170.000       2675.000       15434.13       15457.50       8196.447       9681.605       14980.95       14976.36       8024.057       9470.127 
       2465.650       1.000000       1.000000  5.000000e+007       90173.00       3006.000       6740.000       6256.000       2121.000       2731.000       15641.44       15556.23       8229.435       9753.758       15140.82       14991.40       8071.766       9560.298 
       2465.802       1.000000       1.000000  5.000000e+007       90227.00       2998.000       6853.000       6183.000       2205.000       2850.000       15628.65       15388.46       8263.583       9988.795       15152.11       14900.36       8088.993       9750.652 
       2465.951       1.000000       1.000000  5.000000e+007       90219.00       3016.000       6810.000       6300.000       2271.000       2776.000       15564.21       15744.58       8474.728       9748.074       15143.67       15196.24       8289.927       9543.956 
       2466.102       1.000000       1.000000  5.000000e+007       90334.00       3024.000       6896.000       6381.000       2309.000       2873.000       15879.97       15652.54       8423.850       9810.872       15373.38       15175.83       8251.207       9627.165 
       2466.251       1.000000       1.000000  5.000000e+007       90448.00       3038.000       7017.000       6536.000       2321.000       2899.000       15790.44       15933.50       8531.145       9939.560       15268.62       15416.07       8341.520       9695.766 
       2466.400       1.000000       1.000000  5.000000e+007       90540.00       3022.000       7080.000       6555.000       2432.000       3000.000       16021.56       16012.01       8517.431       10137.08       15558.97       15467.34       8364.175       9930.637 
       2466.551       1.000000       1.000000  5.000000e+007       90637.00       3023.000       7069.000       6537.000       2398.000       3016.000       15933.10       15946.35       8690.717       10040.46       15436.48       15475.73       8482.215       9810.502 
       2466.701       1.000000       1.000000  5.000000e+007       90879.00       3007.000       7260.000       6754.000       2489.000       3128.000       16197.40       16106.23       8753.261       10186.53       15671.72       15536.37       8566.800       9990.368 
       2466.850       1.000000       1.000000  5.000000e+007       91086.00       3010.000       7349.000       6858.000       2606.000       3066.000       16414.60       16217.19       8940.369       10155.96       15880.98       15708.58       8741.164       9930.915 
       2467.000       1.000000       1.000000  5.000000e+007       91390.00       3025.000       7578.000       6992.000       2616.000       3220.000       16609.58       16451.62       8982.137       10347.25       16099.86       15941.93       8761.567       10132.13 
       2467.150       1.000000       1.000000  5.000000e+007       91571.00       3024.000       7602.000       6941.000       2739.000       3371.000       16623.78       16538.39       9059.121       10526.40       16101.69       15955.95       8852.044       10293.96 
       2467.300       1.000000       1.000000  5.000000e+007       91719.00       3021.000       7825.000       7233.000       2769.000       3505.000       16925.57       16964.20       9121.191       10904.50       16389.83       16388.79       8897.354       10684.80 
       2467.451       1.000000       1.000000  5.000000e+007       91769.00       3014.000       7907.000       7362.000       3092.000       3491.000       16975.04       17090.72       9497.479       10674.24       16441.37       16521.00       9268.750       10457.00 
       2467.600       1.000000       1.000000  5.000000e+007       91889.00       3010.000       8159.000       7575.000       3081.000       3678.000       17161.75       17374.18       9508.741       10918.22       16615.03       16829.63       9287.201       10660.44 
       2467.750       1.000000       1.000000  5.000000e+007       91989.00       3026.000       8482.000       7625.000       3235.000       3730.000       17843.49       17418.79       9690.241       11008.30       17207.07       16820.21       9473.118       10749.57 
       2467.901       1.000000       1.000000  5.000000e+007       92061.00       3040.000       8641.000       8007.000       3354.000       3979.000       18064.08       18043.46       9885.493       11343.24       17450.09       17356.08       9620.141       11094.18 
       2468.051       1.000000       1.000000  5.000000e+007       92124.00       3053.000       8894.000       8116.000       3492.000       4147.000       18310.55       18101.34       10042.11       11640.06       17681.93       17445.47       9785.541       11339.70 
       2468.201       1.000000       1.000000  5.000000e+007       92099.00       3023.000       9190.000       8494.000       3664.000       4520.000       18589.27       18423.90       10261.18       11855.63       17963.38       17755.21       10000.09       11589.31 
       2468.351       1.000000       1.000000  5.000000e+007       92110.00       2998.000       9472.000       8833.000       3813.000       4714.000       19085.60       18845.69       10473.55       12085.71       18384.86       18147.04       10213.99       11770.54 
       2468.501       1.000000       1.000000  5.000000e+007       92174.00       2981.000       9916.000       9524.000       4232.000       5079.000       19621.60       19921.05       10762.71       12583.12       18931.22       19097.54       10473.97       12253.25 
       2468.652       1.000000       1.000000  5.000000e+007       92244.00       2994.000       10514.00       9888.000       4645.000       5506.000       20054.14       20284.07       11333.82       12923.30       19313.39       19468.15       11056.38       12598.63 
       2468.801       1.000000       1.000000  5.000000e+007       92298.00       3000.000       11110.00       10532.00       5014.000       5952.000       21042.31       20984.39       11948.33       13607.73       20248.55       20052.34       11613.56       13250.53 
       2468.949       1.000000       1.000000  5.000000e+007       92272.00       3013.000       12244.00       11395.00       5566.000       6751.000       22272.98       22137.72       12541.12       14518.64       21401.60       21182.21       12203.38       14133.25 
       2469.101       1.000000       1.000000  5.000000e+007       92185.00       2974.000       13472.00       12733.00       6581.000       7905.000       23754.96       23788.30       13696.78       15831.06       22673.79       22733.43       13290.06       15318.40 
       2469.250       1.000000       1.000000  5.000000e+007       92151.00       2941.000       15510.00       14821.00       7703.000       9391.000       25872.71       26077.33       15101.01       17623.42       24672.03       24829.30       14640.72       17053.53 
       2469.400       1.000000       1.000000  5.000000e+007       92238.00       2942.000       17715.00       17076.00       9321.000       11058.00       28570.99       29345.20       17139.79       19715.50       27104.92       27727.65       16530.21       19014.56 
       2469.550       1.000000       1.000000  5.000000e+007       92228.00       2936.000       21063.00       20266.00       11189.00       13578.00       32772.13       33478.15       19547.87       22733.38       30845.80       31567.12       18714.35       21825.01 
       2469.700       1.000000       1.000000  5.000000e+007       92366.00       2941.000       23776.00       22910.00       13466.00       15869.00       36259.95       36981.13       22424.09       25510.03       33935.53       34522.60       21366.28       24327.25 
       2469.850       1.000000       1.000000  5.000000e+007       92471.00       2949.000       26386.00       25305.00       14999.00       17942.00       39632.00       40584.85       24330.53       28155.32       36814.35       37686.80       23146.49       26693.72 
       2470.000       1.000000       1.000000  5.000000e+007       92417.00       2944.000       28059.00       27744.00       16412.00       19350.00       41783.88       43460.07       26323.94       30010.32       38693.75       40225.66       24971.69       28355.80 
       2470.150       1.000000       1.000000  5.000000e+007       92433.00       2935.000       29370.00       28549.00       17314.00       20303.00       43330.58       44805.26       27297.29       31181.96       40039.76       41544.70       25816.21       29511.32 
       2470.300       1.000000       1.000000  5.000000e+007       92479.00       2943.000       29257.00       28728.00       17419.00       20340.00       43387.67       44931.64       27486.63       31306.95       40105.78       41450.26       25928.33       29551.89 
       2470.450       1.000000       1.000000  5.000000e+007       92352.00       2910.000       29848.00       28901.00       17554.00       20407.00       43861.43       44879.75       27525.98       31373.57       40552.99       41584.14       26014.76       29578.45 
       2470.601       1.000000       1.000000  5.000000e+007       92394.00       2888.000       30337.00       29635.00       18050.00       21397.00       44808.37       46264.36       28318.60       32381.97       41182.23       42507.74       26741.06       30517.48 
       2470.750       1.000000       1.000000  5.000000e+007       92476.00       2912.000       32552.00       31707.00       19525.00       23221.00       47961.54       49340.24       30325.44       34992.91       44049.99       45099.68       28484.68       32764.35 
       2470.900       1.000000       1.000000  5.000000e+007       92458.00       2900.000       36687.00       35906.00       22654.00       26513.00       53657.71       55572.95       34660.63       39426.00       48674.43       50404.40       32318.36       36619.77 
       2471.049       1.000000       1.000000  5.000000e+007       92388.00       2879.000       42423.00       41142.00       26817.00       30901.00       61560.67       63591.07       40322.25       45495.04       55035.71       56995.71       37182.95       41749.36 
