; Epics Scan 1 dimensional scan
;  current scan  = 1
;  scan dimension= 1
;  scan prefix   = 13IDE:
; PV list:
; Storage Ring Current (S:SRcurrentAI.VAL)	 = 102.1550
; Undulator Energy (ID13ds:Energy.VAL)	 = 7.4680
; Undulator Gap (ID13ds:Gap.VAL)	 = 14.0513
; Undulator Harmonic (ID13ds:HarmonicValue.VAL)	 = 1.0000
; ID H Beam Pos (BL13:SRID:HPosition.VAL)	 = 0.453
; ID H Beam Angle (BL13:SRID:HAngle.VAL)	 = -387
; ID V Beam Pos (BL13:SRID:VPosition.VAL)	 = -0.143
; ID V Beam Angle (BL13:SRID:VAngle.VAL)	 = 78
; mono d spacing (13IDE:En:dspace)	 = 3.13477
; Mono Energy drive val (13IDE:En:Energy.VAL)	 = 2450.00000
; Mono Energy readback (13IDE:En:E_RBV)	 = 2450.00057
; FOE Mono angle readback (13IDA:m65.RBV)	 = 53.82025
; mono theta offset (13IDA:m65.OFF)	 = 17.51422
; 2nd XTAL pitch (13IDA:m67.VAL)	 = -0.1620
; 2nd XTAL roll (13IDA:m68.VAL)	 = 1.0840
; 2nd XTAL pitch piezo (13IDA:DAC1_7.VAL)	 = 5.536
; 2nd XTAL roll piezo (13IDA:DAC1_8.VAL)	 = 4.049
; I0 preamp sensitivity (13IDE:A1sens_num.VAL)	 = 20
; I0 preamp units (13IDE:A1sens_unit.VAL)	 = nA/V
; I1 preamp sensitivity (13IDE:A2sens_num.VAL)	 = 200
; I1 preamp units (13IDE:A2sens_unit.VAL)	 = nA/V
; I2 preamp sensitivity (13IDE:A3sens_num.VAL)	 = 5
; I2 preamp units (13IDE:A3sens_unit.VAL)	 = uA/V
; I0 current (uA) (13XRM:ION:Current)	 =       0.0172
; I0 absorbed flux (Hz) (13XRM:ION:FluxAbs)	 =    1.402e+09
; I0 transmitted flux (Hz) (13XRM:ION:FluxOut)	 =    1.118e+11
; I0 input voltage (13XRM:ION:Volts)	 = 13IDE:userTran1.D
; I0 input amplifier (13XRM:ION:Amp)	 = 13IDE:A1
; I0 chamber length (cm) (13XRM:ION:Length)	 = 20.0
; I0 chamber gas (13XRM:ION:Gas)	 = He
; FOE H Slit Pos (13IDA:m5.VAL)	 = 1.2002
; FOE H Slit Wid (13IDA:m6.VAL)	 = 0.8001
; FOE H Slit Pos (13IDA:m7.VAL)	 = -0.4001
; FOE V Slit Wid (13IDA:m8.VAL)	 = 0.2500
; E Mono Height (13IDA:m66.VAL)	 = 22.8689
; E Mono Pitch (13IDA:m67.VAL)	 = -0.1620
; E Mono Roll (13IDA:m68.VAL)	 = 1.0840
; Table Slit Bottom (13IDE:m21.VAL)	 = 0.350
; Table Slit Top (13IDE:m22.VAL)	 = -0.350
; Table Slit Inboard (13IDE:m23.VAL)	 = 0.540
; Table Slit Outboard (13IDE:m24.VAL)	 = 0.340
; KB V mirror stripe (13IDE:m7.VAL)	 = 0.0000
; KB V mirror up height (13IDE:m8.VAL)	 = -0.5812
; KB V mirror dn force (13IDE:m9.VAL)	 = 3.9100
; KB V mirror up force (13IDE:m10.VAL)	 = 2.8900
; KB V mirror dn heigt (13IDE:m11.VAL)	 = 0.5812
; KB H mirror stripe (13IDE:m12.VAL)	 = 1.0000
; KB H mirror up height (13IDE:m13.VAL)	 = -0.5813
; KB H mirror dn force (13IDE:m14.VAL)	 = 3.6500
; KB H mirror up force (13IDE:m15.VAL)	 = 3.8500
; KB H mirror dn height (13IDE:m16.VAL)	 = 0.5813
; Sample Stage Fine X (13XRM:m1.VAL)	 = 0.00000
; Sample Stage Fine Y (13XRM:m2.VAL)	 = 0.00000
; Sample Theta (13XRM:m3.VAL)	 = 180.0000
; Sample Stage Coarse Up/Downstream (13XRM:m4.VAL)	 = -19.8245
; Sample Stage Coarse In/Outboard (13XRM:m5.VAL)	 = 30.3245
; Sample Stage Coarse X (13XRM:pm2.VAL)	 = 110.4607
; Sample Stage Coarse Z (focus) (13XRM:pm1.VAL)	 = 44.7500
; Sample Stage Coarse Y (vert) (13XRM:m6.VAL)	 = 191.2000
; Vortex X (13IDE:m34.VAL)	 = 743.1
; Vortex Y (13IDE:m4.VAL)	 = 2.950
; Vortex Z (13IDE:m19.VAL)	 = 15.0000
; Vortex dxp1 Peaking Time (13SDD1:dxp1:PeakingTime)	 = 1.000
; Vortex dxp2 Peaking Time (13SDD1:dxp2:PeakingTime)	 = 1.000
; Vortex dxp3 Peaking Time (13SDD1:dxp3:PeakingTime)	 = 1.000
; Vortex dxp4 Peaking Time (13SDD1:dxp4:PeakingTime)	 = 1.000
; Scan Regions: EXAFS scan with        3 regions
;   E0 =       2472.00
;       Start       Stop       Step       Npts       Time   Kspace?
;     -22.000    -8.0000     2.0000     8.0000     1.0000   0
;     -8.0000     16.000    0.20000     121.00     1.0000   0
;      2.0493     10.500   0.050004     170.00     1.0000   1
; scan began at time: Wed Nov 06 12:24:59 2013
;=====================================================
; scan ended at time: Wed Nov 06 12:34:44 2013
; n_points      =      297
; column labels:
; P1 = {Energy} --> 13IDE:En:Energy.VAL
; P2 = {Scaler Count Time} --> 13IDE:scaler1.TP
; P3 = {MCA Count Time} --> 13SDD1:PresetReal
; D1 = {TSCALER}  --> 13IDE:scaler1_calc1.VAL
; D2 = {I0}  --> 13IDE:scaler1_calc2.VAL
; D3 = {I1}  --> 13IDE:scaler1_calc3.VAL
; D4 = {S Ka}  --> 13SDD1:mca1.R0
; D5 = {S Ka}  --> 13SDD1:mca2.R0
; D6 = {S Ka}  --> 13SDD1:mca3.R0
; D7 = {S Ka}  --> 13SDD1:mca4.R0
; D8 = {13SDD1:dxp1:InputCountRate}  --> 13SDD1:dxp1:InputCountRate
; D9 = {13SDD1:dxp2:InputCountRate}  --> 13SDD1:dxp2:InputCountRate
; D10 = {13SDD1:dxp3:InputCountRate}  --> 13SDD1:dxp3:InputCountRate
; D11 = {13SDD1:dxp4:InputCountRate}  --> 13SDD1:dxp4:InputCountRate
; D12 = {13SDD1:dxp1:OutputCountRate}  --> 13SDD1:dxp1:OutputCountRate
; D13 = {13SDD1:dxp2:OutputCountRate}  --> 13SDD1:dxp2:OutputCountRate
; D14 = {13SDD1:dxp3:OutputCountRate}  --> 13SDD1:dxp3:OutputCountRate
; D15 = {13SDD1:dxp4:OutputCountRate}  --> 13SDD1:dxp4:OutputCountRate
;--------------------------------------------
;  P1 P2 P3 D1 D2 D3 D4 D5 D6 D7 D8 D9 D10 D11 D12 D13 D14 D15
       2450.000       1.000000       1.000000  5.000000e+007       85800.00       4024.000       4937.000       4952.000       1690.000       2182.000       15146.35       15953.42       9287.212       10484.25       14683.79       15405.91       9022.255       10204.82 
       2452.000       1.000000       1.000000  5.000000e+007       88446.00       4301.000       5279.000       5193.000       1728.000       2245.000       15955.37       16639.83       9776.974       11085.12       15537.84       16208.37       9532.697       10861.91 
       2454.000       1.000000       1.000000  5.000000e+007       91283.00       4500.000       5454.000       5317.000       1928.000       2405.000       16746.63       17231.00       10318.56       11597.94       16196.46       16643.73       10052.10       11322.99 
       2456.000       1.000000       1.000000  5.000000e+007       94195.00       4790.000       5885.000       5611.000       2063.000       2459.000       17782.19       18541.73       10839.20       12097.67       17272.98       17933.99       10494.75       11808.12 
       2458.000       1.000000       1.000000  5.000000e+007       96610.00       4973.000       5976.000       5879.000       2204.000       2637.000       18372.58       18875.82       11234.06       12486.29       17733.38       18205.04       10932.07       12191.07 
       2460.000       1.000000       1.000000  5.000000e+007       98510.00       4992.000       6304.000       6071.000       2220.000       2762.000       18731.27       19047.62       11048.01       12774.23       18122.99       18441.86       10760.58       12466.09 
       2462.000       1.000000       1.000000  5.000000e+007       99356.00       5102.000       6574.000       6408.000       2392.000       2951.000       19200.45       19892.81       11660.41       12856.14       18501.88       19154.79       11308.78       12498.00 
       2464.000       1.000000       1.000000  5.000000e+007       100299.0       5003.000       6909.000       6713.000       2542.000       3270.000       19497.09       20178.99       11381.46       13398.30       18821.12       19507.83       11068.08       13086.05 
       2464.201       1.000000       1.000000  5.000000e+007       100198.0       4982.000       6921.000       6689.000       2440.000       3214.000       19575.66       20022.47       11476.35       13388.64       18827.36       19218.73       11127.19       13003.07 
       2464.400       1.000000       1.000000  5.000000e+007       99982.00       4918.000       7073.000       6597.000       2544.000       3152.000       19553.86       19892.20       11463.83       13177.82       18850.59       19075.53       11135.80       12799.66 
       2464.602       1.000000       1.000000  5.000000e+007       99870.00       4904.000       7085.000       6756.000       2532.000       3143.000       19752.28       20158.42       11415.86       13006.37       18973.75       19314.31       11101.20       12659.11 
       2464.802       1.000000       1.000000  5.000000e+007       99659.00       4870.000       7110.000       6850.000       2637.000       3338.000       19474.67       20189.00       11521.72       13157.79       18701.18       19386.43       11213.93       12761.94 
       2465.000       1.000000       1.000000  5.000000e+007       99662.00       4857.000       7068.000       6907.000       2641.000       3277.000       19591.06       20197.82       11493.07       13121.57       18816.51       19432.39       11169.90       12739.94 
       2465.200       1.000000       1.000000  5.000000e+007       99751.00       4836.000       7124.000       7002.000       2724.000       3318.000       19380.67       20359.19       11613.45       13191.28       18701.55       19603.86       11291.74       12869.48 
       2465.399       1.000000       1.000000  5.000000e+007       99919.00       4845.000       7222.000       6867.000       2737.000       3492.000       20037.28       20226.00       11680.98       13457.95       19346.19       19498.80       11327.25       13072.36 
       2465.601       1.000000       1.000000  5.000000e+007       100070.0       4843.000       7390.000       7179.000       2762.000       3366.000       20006.84       20648.93       11707.76       13378.87       19204.54       19833.24       11322.18       12996.71 
       2465.800       1.000000       1.000000  5.000000e+007       99923.00       4845.000       7432.000       7034.000       2855.000       3542.000       20052.09       20462.55       11762.56       13376.62       19310.73       19659.20       11426.28       13014.33 
       2466.001       1.000000       1.000000  5.000000e+007       100828.0       4891.000       7562.000       7360.000       2973.000       3543.000       20370.69       20844.96       12089.20       13616.88       19523.24       20026.40       11749.20       13188.20 
       2466.199       1.000000       1.000000  5.000000e+007       101061.0       4902.000       7876.000       7470.000       2981.000       3671.000       20715.91       21046.96       12063.00       13636.12       19895.82       20185.00       11694.19       13296.19 
       2466.400       1.000000       1.000000  5.000000e+007       101454.0       4905.000       7939.000       7483.000       3102.000       3850.000       20833.23       21436.96       12048.51       14096.12       20008.26       20538.58       11711.70       13665.85 
       2466.601       1.000000       1.000000  5.000000e+007       101719.0       4975.000       8007.000       7806.000       3219.000       3840.000       21014.78       21668.20       12533.42       14135.76       20147.08       20757.26       12137.32       13707.05 
       2466.800       1.000000       1.000000  5.000000e+007       101843.0       4941.000       8233.000       7941.000       3201.000       3965.000       21341.31       21793.45       12308.26       14063.64       20480.18       20897.33       11934.52       13672.16 
       2467.000       1.000000       1.000000  5.000000e+007       102025.0       4932.000       8393.000       8064.000       3422.000       4198.000       21420.40       21845.84       12552.79       14494.27       20514.96       20965.68       12165.59       14071.96 
       2467.201       1.000000       1.000000  5.000000e+007       102079.0       4930.000       8534.000       8172.000       3492.000       4300.000       21704.10       22139.60       12767.09       14542.92       20816.88       21226.16       12362.05       14103.25 
       2467.400       1.000000       1.000000  5.000000e+007       102118.0       4901.000       8772.000       8469.000       3555.000       4366.000       21886.10       22650.30       12771.08       14763.81       21005.66       21701.43       12377.92       14268.03 
       2467.600       1.000000       1.000000  5.000000e+007       102124.0       4878.000       8836.000       8775.000       3697.000       4642.000       22029.45       22823.14       12993.01       14957.03       21098.41       21984.75       12571.88       14522.24 
       2467.800       1.000000       1.000000  5.000000e+007       102219.0       4864.000       9264.000       8881.000       3927.000       4723.000       22339.97       23160.56       13391.38       14995.01       21481.07       22203.19       12968.53       14535.86 
       2468.000       1.000000       1.000000  5.000000e+007       102352.0       4882.000       9493.000       9256.000       3995.000       4916.000       22667.47       23518.96       13277.24       15122.01       21754.46       22508.99       12824.96       14651.14 
       2468.200       1.000000       1.000000  5.000000e+007       102384.0       4890.000       9796.000       9421.000       4205.000       5117.000       23186.09       23817.30       13700.62       15849.65       22209.14       22802.54       13243.79       15350.21 
       2468.400       1.000000       1.000000  5.000000e+007       102337.0       4823.000       10428.00       10078.00       4562.000       5468.000       24020.13       24525.14       14045.33       15786.57       22992.29       23506.32       13579.98       15344.10 
       2468.601       1.000000       1.000000  5.000000e+007       102537.0       4870.000       10738.00       10236.00       4781.000       5823.000       24500.07       24905.06       14305.46       16304.37       23309.11       23745.26       13816.42       15767.41 
       2468.801       1.000000       1.000000  5.000000e+007       102388.0       4804.000       11274.00       10861.00       5179.000       6300.000       24696.81       25486.22       14691.37       16849.53       23661.98       24426.53       14195.96       16331.24 
       2469.000       1.000000       1.000000  5.000000e+007       102453.0       4780.000       12149.00       11358.00       5659.000       6698.000       25726.21       26017.97       15344.17       17254.62       24553.39       24828.43       14829.96       16683.35 
       2469.200       1.000000       1.000000  5.000000e+007       102428.0       4801.000       12679.00       12289.00       6086.000       7478.000       26556.07       26938.37       15954.61       18171.97       25284.68       25674.89       15402.19       17544.08 
       2469.400       1.000000       1.000000  5.000000e+007       102459.0       4757.000       13830.00       13278.00       6684.000       8064.000       27697.26       28449.53       16448.69       18811.13       26338.98       27028.75       15863.35       18140.83 
       2469.600       1.000000       1.000000  5.000000e+007       102497.0       4755.000       14861.00       14624.00       7448.000       9087.000       28866.77       30046.21       17516.16       20057.25       27406.51       28540.55       16854.53       19325.55 
       2469.801       1.000000       1.000000  5.000000e+007       102528.0       4757.000       16648.00       16171.00       8436.000       10169.00       30995.92       32104.66       18744.85       21442.57       29292.30       30196.96       17976.11       20526.91 
       2470.000       1.000000       1.000000  5.000000e+007       102665.0       4763.000       18668.00       18270.00       9858.000       11831.00       33591.16       35047.29       20612.68       23465.10       31462.33       32825.18       19647.19       22380.02 
       2470.200       1.000000       1.000000  5.000000e+007       102578.0       4748.000       21409.00       21189.00       11644.00       14135.00       37096.25       38489.99       22928.09       26360.59       34821.45       36040.58       21888.66       25096.78 
       2470.401       1.000000       1.000000  5.000000e+007       102592.0       4771.000       25912.00       25182.00       14666.00       17347.00       42785.71       44331.92       26702.42       30283.57       39557.44       40917.80       25223.62       28558.96 
       2470.600       1.000000       1.000000  5.000000e+007       102448.0       4672.000       32369.00       31752.00       19100.00       22623.00       50955.46       53023.16       32404.59       36736.00       46844.54       48912.06       30380.63       34555.69 
       2470.802       1.000000       1.000000  5.000000e+007       102528.0       4673.000       40996.00       39932.00       24633.00       29400.00       63225.96       65652.15       40198.47       45852.30       56453.71       58722.49       37022.14       42196.85 
       2471.000       1.000000       1.000000  5.000000e+007       102560.0       4689.000       51285.00       50550.00       32606.00       37730.00       78441.05       82032.42       51842.60       58258.84       68411.05       71929.34       46725.58       52501.54 
       2471.201       1.000000       1.000000  5.000000e+007       102508.0       4694.000       61474.00       59096.00       39762.00       45972.00       95220.47       98842.71       63203.66       70854.06       81016.57       84079.77       55789.02       62490.88 
       2471.400       1.000000       1.000000  5.000000e+007       102590.0       4670.000       69069.00       67460.00       45370.00       53140.00       107607.2       113085.2       72035.69       81462.46       90622.49       95332.95       63101.70       71387.21 
       2471.600       1.000000       1.000000  5.000000e+007       102390.0       4609.000       72906.00       70145.00       48535.00       56532.00       114282.6       119098.9       77295.52       87519.13       95591.10       99573.09       67369.07       76028.46 
       2471.801       1.000000       1.000000  5.000000e+007       102623.0       4632.000       72819.00       70033.00       48887.00       56642.00       116842.2       122169.8       79475.91       89309.91       95366.00       99794.22       68001.30       75961.96 
       2472.000       1.000000       1.000000  5.000000e+007       102590.0       4622.000       73536.00       70899.00       49221.00       57558.00       117587.1       122156.1       79346.28       89693.29       96436.02       100670.4       68001.35       77044.31 
       2472.201       1.000000       1.000000  5.000000e+007       102845.0       4651.000       71885.00       69507.00       48003.00       55715.00       115199.5       120400.6       77599.77       87549.15       94363.59       98430.70       66561.88       74951.30 
       2472.402       1.000000       1.000000  5.000000e+007       102816.0       4656.000       69214.00       66944.00       45718.00       53423.00       109492.7       114817.4       73496.89       83185.09       90975.71       95002.26       63642.87       71853.13 
       2472.601       1.000000       1.000000  5.000000e+007       102420.0       4604.000       66328.00       64203.00       42960.00       50233.00       102594.1       106431.5       68103.28       77193.98       87120.28       90666.22       60053.85       68182.66 
       2472.800       1.000000       1.000000  5.000000e+007       103287.0       4662.000       63347.00       61382.00       40747.00       47899.00       97861.24       102056.3       64653.43       73690.45       83214.70       87254.67       57225.25       65096.91 
       2473.001       1.000000       1.000000  5.000000e+007       103334.0       4637.000       60209.00       59372.00       38858.00       45779.00       92724.66       97913.26       61714.32       70290.96       79546.27       84080.48       54935.79       62267.07 
       2473.200       1.000000       1.000000  5.000000e+007       103504.0       4624.000       58112.00       56734.00       36800.00       43294.00       88824.57       92805.46       58250.50       66200.98       77258.70       80544.92       52140.20       59252.86 
       2473.399       1.000000       1.000000  5.000000e+007       103525.0       4641.000       54267.00       52894.00       34367.00       40201.00       83971.48       87332.79       54965.45       62223.25       72096.45       75480.22       49071.42       55450.39 
