; Epics Scan 1 dimensional scan
;  current scan  = 1
;  scan dimension= 1
;  scan prefix   = 13IDE:
; PV list:
; Storage Ring Current (S:SRcurrentAI.VAL)	 = 102.1691
; Undulator Energy (ID13ds:Energy.VAL)	 = 7.4680
; Undulator Gap (ID13ds:Gap.VAL)	 = 14.0513
; Undulator Harmonic (ID13ds:HarmonicValue.VAL)	 = 1.0000
; ID H Beam Pos (BL13:SRID:HPosition.VAL)	 = 0.455
; ID H Beam Angle (BL13:SRID:HAngle.VAL)	 = -386
; ID V Beam Pos (BL13:SRID:VPosition.VAL)	 = -0.143
; ID V Beam Angle (BL13:SRID:VAngle.VAL)	 = 78
; mono d spacing (13IDE:En:dspace)	 = 3.13477
; Mono Energy drive val (13IDE:En:Energy.VAL)	 = 2450.00000
; Mono Energy readback (13IDE:En:E_RBV)	 = 2450.00057
; FOE Mono angle readback (13IDA:m65.RBV)	 = 53.82025
; mono theta offset (13IDA:m65.OFF)	 = 17.51422
; 2nd XTAL pitch (13IDA:m67.VAL)	 = -0.1620
; 2nd XTAL roll (13IDA:m68.VAL)	 = 1.0840
; 2nd XTAL pitch piezo (13IDA:DAC1_7.VAL)	 = 5.433
; 2nd XTAL roll piezo (13IDA:DAC1_8.VAL)	 = 4.049
; I0 preamp sensitivity (13IDE:A1sens_num.VAL)	 = 20
; I0 preamp units (13IDE:A1sens_unit.VAL)	 = nA/V
; I1 preamp sensitivity (13IDE:A2sens_num.VAL)	 = 200
; I1 preamp units (13IDE:A2sens_unit.VAL)	 = nA/V
; I2 preamp sensitivity (13IDE:A3sens_num.VAL)	 = 5
; I2 preamp units (13IDE:A3sens_unit.VAL)	 = uA/V
; I0 current (uA) (13XRM:ION:Current)	 =       0.0114
; I0 absorbed flux (Hz) (13XRM:ION:FluxAbs)	 =    9.285e+08
; I0 transmitted flux (Hz) (13XRM:ION:FluxOut)	 =    7.405e+10
; I0 input voltage (13XRM:ION:Volts)	 = 13IDE:userTran1.D
; I0 input amplifier (13XRM:ION:Amp)	 = 13IDE:A1
; I0 chamber length (cm) (13XRM:ION:Length)	 = 20.0
; I0 chamber gas (13XRM:ION:Gas)	 = He
; FOE H Slit Pos (13IDA:m5.VAL)	 = 1.2002
; FOE H Slit Wid (13IDA:m6.VAL)	 = 0.8001
; FOE H Slit Pos (13IDA:m7.VAL)	 = -0.4001
; FOE V Slit Wid (13IDA:m8.VAL)	 = 0.2500
; E Mono Height (13IDA:m66.VAL)	 = 22.8689
; E Mono Pitch (13IDA:m67.VAL)	 = -0.1620
; E Mono Roll (13IDA:m68.VAL)	 = 1.0840
; Table Slit Bottom (13IDE:m21.VAL)	 = 0.350
; Table Slit Top (13IDE:m22.VAL)	 = -0.350
; Table Slit Inboard (13IDE:m23.VAL)	 = 0.540
; Table Slit Outboard (13IDE:m24.VAL)	 = 0.340
; KB V mirror stripe (13IDE:m7.VAL)	 = 0.0000
; KB V mirror up height (13IDE:m8.VAL)	 = -0.5812
; KB V mirror dn force (13IDE:m9.VAL)	 = 3.9100
; KB V mirror up force (13IDE:m10.VAL)	 = 2.8900
; KB V mirror dn heigt (13IDE:m11.VAL)	 = 0.5812
; KB H mirror stripe (13IDE:m12.VAL)	 = 1.0000
; KB H mirror up height (13IDE:m13.VAL)	 = -0.5813
; KB H mirror dn force (13IDE:m14.VAL)	 = 3.6500
; KB H mirror up force (13IDE:m15.VAL)	 = 3.8500
; KB H mirror dn height (13IDE:m16.VAL)	 = 0.5813
; Sample Stage Fine X (13XRM:m1.VAL)	 = 0.00000
; Sample Stage Fine Y (13XRM:m2.VAL)	 = 0.00000
; Sample Theta (13XRM:m3.VAL)	 = 180.0000
; Sample Stage Coarse Up/Downstream (13XRM:m4.VAL)	 = -19.8245
; Sample Stage Coarse In/Outboard (13XRM:m5.VAL)	 = 30.3245
; Sample Stage Coarse X (13XRM:pm2.VAL)	 = 110.4607
; Sample Stage Coarse Z (focus) (13XRM:pm1.VAL)	 = 44.7500
; Sample Stage Coarse Y (vert) (13XRM:m6.VAL)	 = 191.2000
; Vortex X (13IDE:m34.VAL)	 = 743.1
; Vortex Y (13IDE:m4.VAL)	 = 2.950
; Vortex Z (13IDE:m19.VAL)	 = 15.0000
; Vortex dxp1 Peaking Time (13SDD1:dxp1:PeakingTime)	 = 1.000
; Vortex dxp2 Peaking Time (13SDD1:dxp2:PeakingTime)	 = 1.000
; Vortex dxp3 Peaking Time (13SDD1:dxp3:PeakingTime)	 = 1.000
; Vortex dxp4 Peaking Time (13SDD1:dxp4:PeakingTime)	 = 1.000
; Scan Regions: EXAFS scan with        3 regions
;   E0 =       2472.00
;       Start       Stop       Step       Npts       Time   Kspace?
;     -22.000    -8.0000     2.0000     8.0000     1.0000   0
;     -8.0000     16.000    0.15000     161.00     1.0000   0
;      2.0493     10.500   0.050004     170.00     1.0000   1
; scan began at time: Wed Nov 06 12:35:46 2013
;=====================================================
; scan ended at time: Wed Nov 06 12:44:53 2013
; n_points      =      337
; column labels:
; P1 = {Energy} --> 13IDE:En:Energy.VAL
; P2 = {Scaler Count Time} --> 13IDE:scaler1.TP
; P3 = {MCA Count Time} --> 13SDD1:PresetReal
; D1 = {TSCALER}  --> 13IDE:scaler1_calc1.VAL
; D2 = {I0}  --> 13IDE:scaler1_calc2.VAL
; D3 = {I1}  --> 13IDE:scaler1_calc3.VAL
; D4 = {S Ka}  --> 13SDD1:mca1.R0
; D5 = {S Ka}  --> 13SDD1:mca2.R0
; D6 = {S Ka}  --> 13SDD1:mca3.R0
; D7 = {S Ka}  --> 13SDD1:mca4.R0
; D8 = {13SDD1:dxp1:InputCountRate}  --> 13SDD1:dxp1:InputCountRate
; D9 = {13SDD1:dxp2:InputCountRate}  --> 13SDD1:dxp2:InputCountRate
; D10 = {13SDD1:dxp3:InputCountRate}  --> 13SDD1:dxp3:InputCountRate
; D11 = {13SDD1:dxp4:InputCountRate}  --> 13SDD1:dxp4:InputCountRate
; D12 = {13SDD1:dxp1:OutputCountRate}  --> 13SDD1:dxp1:OutputCountRate
; D13 = {13SDD1:dxp2:OutputCountRate}  --> 13SDD1:dxp2:OutputCountRate
; D14 = {13SDD1:dxp3:OutputCountRate}  --> 13SDD1:dxp3:OutputCountRate
; D15 = {13SDD1:dxp4:OutputCountRate}  --> 13SDD1:dxp4:OutputCountRate
;--------------------------------------------
;  P1 P2 P3 D1 D2 D3 D4 D5 D6 D7 D8 D9 D10 D11 D12 D13 D14 D15
       2450.000       1.000000       1.000000  5.000000e+007       58434.00       2147.000       3659.000       3541.000       1144.000       1457.000       10425.89       10803.87       6334.333       6994.994       10186.05       10546.72       6203.995       6891.106 
       2452.000       1.000000       1.000000  5.000000e+007       65278.00       3053.000       4061.000       3984.000       1450.000       1819.000       12213.37       12852.67       7729.694       8598.489       11934.40       12497.49       7572.129       8465.500 
       2453.999       1.000000       1.000000  5.000000e+007       68479.00       3312.000       4316.000       4282.000       1550.000       1867.000       13124.80       13933.65       8263.526       9174.108       12792.59       13552.67       8075.896       8983.461 
       2456.000       1.000000       1.000000  5.000000e+007       72248.00       3489.000       4591.000       4643.000       1571.000       1945.000       14008.81       14535.03       8464.605       9635.887       13618.10       14112.73       8275.456       9416.210 
       2458.000       1.000000       1.000000  5.000000e+007       78218.00       3795.000       5219.000       4960.000       1832.000       2299.000       15272.34       15806.48       9337.055       10624.74       14810.45       15304.07       9120.253       10374.54 
       2459.999       1.000000       1.000000  5.000000e+007       82219.00       4015.000       5272.000       5345.000       1973.000       2383.000       15922.55       16799.46       9819.591       10874.14       15423.03       16214.54       9566.925       10617.77 
       2462.000       1.000000       1.000000  5.000000e+007       84917.00       4045.000       5819.000       5640.000       2117.000       2592.000       16475.53       17124.52       9949.313       11229.70       15978.17       16591.91       9692.413       10980.74 
       2464.000       1.000000       1.000000  5.000000e+007       88671.00       4301.000       6549.000       6165.000       2379.000       2876.000       18038.60       18516.43       10762.85       12217.43       17434.81       17878.12       10473.54       11907.63 
       2464.150       1.000000       1.000000  5.000000e+007       89725.00       4324.000       6671.000       6226.000       2436.000       3061.000       18176.83       18583.23       10779.94       12313.90       17520.43       17861.50       10451.70       11984.66 
       2464.302       1.000000       1.000000  5.000000e+007       90184.00       4365.000       6666.000       6319.000       2498.000       3108.000       18033.76       18722.30       10927.99       12340.96       17406.00       17973.62       10599.23       12047.42 
       2464.450       1.000000       1.000000  5.000000e+007       91104.00       4388.000       6592.000       6478.000       2563.000       3009.000       18301.41       18852.92       10899.27       12376.91       17660.68       18086.55       10582.53       12038.72 
       2464.601       1.000000       1.000000  5.000000e+007       92081.00       4422.000       6810.000       6495.000       2502.000       3076.000       18660.56       19149.71       11054.23       12532.59       17973.82       18395.66       10740.54       12188.51 
       2464.751       1.000000       1.000000  5.000000e+007       92716.00       4450.000       6928.000       6681.000       2542.000       3178.000       19011.80       19451.77       11129.10       12691.17       18239.95       18633.55       10820.75       12334.24 
       2464.901       1.000000       1.000000  5.000000e+007       92870.00       4458.000       7032.000       6662.000       2618.000       3198.000       18866.57       19519.55       11273.65       12616.99       18127.62       18734.97       10965.16       12302.07 
       2465.051       1.000000       1.000000  5.000000e+007       93081.00       4487.000       6909.000       6582.000       2669.000       3209.000       18874.74       19387.90       11486.19       12802.38       18151.64       18621.66       11144.18       12422.35 
       2465.200       1.000000       1.000000  5.000000e+007       93457.00       4526.000       7001.000       6645.000       2643.000       3297.000       19184.37       19532.69       11234.72       13069.17       18435.79       18696.72       10883.07       12697.82 
       2465.350       1.000000       1.000000  5.000000e+007       93322.00       4479.000       7128.000       6993.000       2687.000       3302.000       19135.69       19955.38       11380.73       12797.44       18388.60       19162.65       11046.83       12424.06 
       2465.500       1.000000       1.000000  5.000000e+007       93375.00       4511.000       7168.000       6953.000       2739.000       3435.000       19469.16       19810.76       11456.67       13233.91       18741.18       19055.42       11145.50       12860.39 
       2465.650       1.000000       1.000000  5.000000e+007       93457.00       4491.000       7295.000       7210.000       2729.000       3404.000       19269.84       20325.18       11418.08       12998.96       18561.22       19453.91       11084.87       12636.70 
       2465.802       1.000000       1.000000  5.000000e+007       93675.00       4480.000       7391.000       7159.000       2811.000       3471.000       19515.46       20213.75       11675.80       13120.13       18784.63       19330.91       11325.26       12758.04 
       2465.951       1.000000       1.000000  5.000000e+007       93860.00       4487.000       7507.000       7130.000       2842.000       3542.000       19473.06       20201.31       11548.61       13124.20       18762.06       19323.28       11195.78       12770.70 
       2466.100       1.000000       1.000000  5.000000e+007       94131.00       4529.000       7608.000       7302.000       2979.000       3653.000       19802.70       20536.39       11789.48       13417.25       19026.87       19637.22       11474.35       13033.88 
       2466.250       1.000000       1.000000  5.000000e+007       94275.00       4528.000       7743.000       7391.000       2966.000       3782.000       19894.62       20530.17       11805.20       13400.93       19181.12       19663.71       11451.90       13029.50 
       2466.401       1.000000       1.000000  5.000000e+007       94323.00       4528.000       7802.000       7383.000       2995.000       3684.000       20163.38       20592.34       11742.53       13541.71       19282.80       19661.07       11383.59       13164.41 
       2466.551       1.000000       1.000000  5.000000e+007       94623.00       4605.000       7855.000       7477.000       3125.000       3792.000       20381.16       20912.58       12116.29       13689.43       19579.90       19962.96       11746.38       13331.51 
       2466.701       1.000000       1.000000  5.000000e+007       94626.00       4584.000       7959.000       7653.000       3167.000       3973.000       20271.66       20958.90       12203.49       13823.25       19472.68       20005.62       11805.63       13414.68 
       2466.851       1.000000       1.000000  5.000000e+007       94913.00       4602.000       8002.000       7760.000       3253.000       3952.000       20611.92       20918.72       12192.90       13805.26       19734.89       20049.63       11796.11       13411.70 
       2467.001       1.000000       1.000000  5.000000e+007       95083.00       4610.000       8134.000       7924.000       3366.000       4081.000       20566.44       21514.50       12291.88       13900.76       19753.29       20579.61       11901.28       13469.34 
       2467.151       1.000000       1.000000  5.000000e+007       95509.00       4656.000       8447.000       7977.000       3482.000       4137.000       21131.75       21673.75       12450.78       14242.73       20236.73       20698.99       12044.85       13826.20 
       2467.301       1.000000       1.000000  5.000000e+007       95414.00       4623.000       8593.000       8179.000       3520.000       4186.000       21200.58       22006.25       12678.70       14450.43       20287.84       21010.89       12250.37       13987.71 
       2467.450       1.000000       1.000000  5.000000e+007       95764.00       4651.000       8754.000       8458.000       3546.000       4451.000       21479.52       22056.74       12820.86       14523.38       20662.29       21073.66       12407.76       14063.53 
       2467.602       1.000000       1.000000  5.000000e+007       95864.00       4631.000       8860.000       8371.000       3790.000       4509.000       21634.91       22178.51       13018.18       14577.37       20671.38       21175.63       12612.44       14123.50 
       2467.750       1.000000       1.000000  5.000000e+007       95794.00       4606.000       9003.000       8851.000       3698.000       4633.000       21756.93       22426.42       12864.67       14617.66       20798.22       21416.16       12430.02       14186.38 
       2467.901       1.000000       1.000000  5.000000e+007       96042.00       4663.000       9332.000       8856.000       3883.000       4826.000       22224.88       22774.66       13130.04       15031.62       21255.11       21674.15       12679.53       14604.32 
       2468.051       1.000000       1.000000  5.000000e+007       96094.00       4628.000       9592.000       9165.000       4087.000       4970.000       22386.90       23009.86       13205.31       15078.82       21380.26       21874.18       12775.07       14597.18 
       2468.201       1.000000       1.000000  5.000000e+007       96197.00       4650.000       9839.000       9427.000       4256.000       5287.000       22904.44       23350.58       13583.20       15543.83       21900.08       22241.07       13149.56       15039.27 
       2468.349       1.000000       1.000000  5.000000e+007       96575.00       4679.000       9997.000       9848.000       4537.000       5492.000       23260.79       24153.56       14046.65       15869.34       22223.80       22957.95       13558.98       15332.03 
       2468.500       1.000000       1.000000  5.000000e+007       96540.00       4672.000       10354.00       10053.00       4606.000       5666.000       23791.27       24328.99       13986.39       16109.15       22664.69       23190.89       13484.52       15541.71 
       2468.650       1.000000       1.000000  5.000000e+007       96857.00       4679.000       10731.00       10457.00       5022.000       5997.000       24126.14       24932.80       14520.74       16443.33       23001.48       23677.56       14057.84       15897.71 
       2468.802       1.000000       1.000000  5.000000e+007       97011.00       4673.000       11362.00       11063.00       5308.000       6295.000       24618.83       25326.21       14915.56       17033.99       23488.64       24124.07       14397.45       16404.55 
       2468.951       1.000000       1.000000  5.000000e+007       97329.00       4734.000       11800.00       11513.00       5527.000       6651.000       25230.67       26115.37       15217.37       17317.77       23976.21       24800.22       14641.23       16705.74 
       2469.100       1.000000       1.000000  5.000000e+007       97227.00       4681.000       12345.00       11769.00       5747.000       7075.000       25814.62       26584.50       15660.98       17925.02       24572.08       25183.40       15053.16       17301.31 
       2469.250       1.000000       1.000000  5.000000e+007       97308.00       4677.000       12934.00       12597.00       6337.000       7651.000       26688.34       27812.49       16224.67       18642.59       25341.12       26239.37       15581.71       17893.55 
       2469.401       1.000000       1.000000  5.000000e+007       97436.00       4666.000       13576.00       13404.00       6674.000       8206.000       27477.70       28474.37       16647.43       19182.89       26038.43       26937.18       16023.46       18528.77 
       2469.550       1.000000       1.000000  5.000000e+007       97540.00       4669.000       14627.00       14279.00       7379.000       9037.000       28832.35       29453.14       17506.24       20119.77       27239.37       27836.36       16816.29       19308.31 
       2469.701       1.000000       1.000000  5.000000e+007       97589.00       4677.000       15748.00       15339.00       8026.000       9700.000       29998.47       31225.44       18120.04       21067.41       28337.46       29353.54       17339.42       20227.52 
       2469.851       1.000000       1.000000  5.000000e+007       97541.00       4637.000       17173.00       16674.00       8941.000       10758.00       31702.02       32692.15       19458.37       22234.54       29799.04       30718.79       18565.84       21310.10 
       2470.001       1.000000       1.000000  5.000000e+007       97543.00       4604.000       18859.00       18502.00       10107.00       12164.00       33692.21       35352.05       20876.57       23790.21       31605.75       33033.95       19921.24       22708.27 
       2470.150       1.000000       1.000000  5.000000e+007       97638.00       4607.000       21197.00       20544.00       11436.00       13744.00       36374.27       37869.22       22567.51       25818.85       34000.69       35309.26       21451.96       24494.98 
       2470.301       1.000000       1.000000  5.000000e+007       97772.00       4650.000       23785.00       23410.00       13275.00       16083.00       39760.18       41844.28       24915.35       28718.19       36910.82       38663.69       23626.76       27178.43 
       2470.450       1.000000       1.000000  5.000000e+007       97804.00       4664.000       27572.00       26934.00       15887.00       18841.00       44652.29       46789.57       28510.24       32308.17       41223.54       42965.19       26855.71       30443.25 
       2470.602       1.000000       1.000000  5.000000e+007       97676.00       4600.000       32597.00       31760.00       19322.00       22789.00       51533.40       53325.49       32979.58       37376.90       46881.22       48467.23       30787.68       34770.57 
       2470.751       1.000000       1.000000  5.000000e+007       97860.00       4650.000       38904.00       37955.00       23328.00       27500.00       60116.79       62916.06       38556.12       43747.54       54011.95       56444.84       35584.62       40294.59 
       2470.901       1.000000       1.000000  5.000000e+007       97875.00       4640.000       46437.00       44816.00       28954.00       33660.00       71177.05       73683.64       46578.47       52583.49       62728.30       65003.94       42304.86       47592.50 
       2471.051       1.000000       1.000000  5.000000e+007       97922.00       4664.000       54336.00       53250.00       34573.00       40941.00       83821.71       87439.30       55336.36       62909.67       72173.95       75518.52       49516.86       56160.16 
